,Termometro Last (mV),riscaldatore Last (V)
1622551166,1594.113,-0.001
1622551167,1594.134,-0.001
1622551168,1594.165,-0.001
1622551169,1594.193,-0.001
1622551170,1594.220,-0.001
1622551171,1594.254,-0.001
1622551172,1594.270,-0.001
1622551173,1594.300,-0.001
1622551174,1594.328,-0.001
1622551175,1594.349,-0.001
1622551176,1594.372,-0.001
1622551177,1594.395,-0.001
1622551178,1594.422,-0.001
1622551179,1594.443,-0.001
1622551180,1594.466,-0.001
1622551181,1594.492,-0.001
1622551182,1594.510,-0.001
1622551183,1594.530,-0.001
1622551184,1594.556,-0.001
1622551185,1594.572,-0.001
1622551186,1594.604,-0.001
1622551187,1594.613,-0.001
1622551188,1594.638,-0.001
1622551189,1594.657,-0.001
1622551190,1594.673,-0.001
1622551191,1594.697,-0.001
1622551192,1594.715,-0.001
1622551193,1594.735,-0.001
1622551194,1594.751,-0.001
1622551195,1594.767,-0.001
1622551196,1594.787,-0.001
1622551197,1594.806,-0.001
1622551198,1594.820,-0.001
1622551199,1594.840,-0.001
1622551200,1594.857,-0.001
1622551201,1594.877,-0.001
1622551202,1594.891,-0.001
1622551203,1594.905,-0.001
1622551204,1594.926,-0.001
1622551205,1594.939,-0.001
1622551206,1594.954,-0.001
1622551207,1594.972,-0.001
1622551208,1594.987,-0.001
1622551209,1595.002,-0.001
1622551210,1595.014,-0.001
1622551211,1595.033,-0.001
1622551212,1595.042,-0.001
1622551213,1595.054,-0.001
1622551214,1595.073,-0.001
1622551215,1595.083,-0.001
1622551216,1595.100,-0.001
1622551217,1595.108,-0.001
1622551218,1595.119,-0.001
1622551219,1595.137,-0.001
1622551220,1595.147,0.179
1622551221,1595.006,0.179
1622551222,1594.839,0.179
1622551223,1594.699,0.179
1622551224,1594.574,0.179
1622551225,1594.462,0.179
1622551226,1594.347,0.179
1622551227,1594.249,0.179
1622551228,1594.160,0.179
1622551229,1594.066,0.179
1622551230,1593.987,0.179
1622551231,1593.907,0.179
1622551232,1593.842,0.179
1622551233,1593.763,0.179
1622551234,1593.700,0.179
1622551235,1593.634,0.179
1622551236,1593.576,0.179
1622551237,1593.513,0.179
1622551238,1593.455,0.179
1622551239,1593.405,0.179
1622551240,1593.357,0.179
1622551241,1593.296,0.179
1622551242,1593.248,0.179
1622551243,1593.203,0.179
1622551244,1593.152,0.179
1622551245,1593.102,0.179
1622551246,1593.059,0.179
1622551247,1593.016,0.179
1622551248,1592.972,0.179
1622551249,1592.929,0.179
1622551250,1592.897,0.179
1622551251,1592.850,0.179
1622551252,1592.809,0.179
1622551253,1592.775,0.179
1622551254,1592.740,0.179
1622551255,1592.705,0.179
1622551256,1592.667,0.179
1622551257,1592.634,0.179
1622551258,1592.603,0.179
1622551259,1592.569,0.179
1622551260,1592.535,0.179
1622551261,1592.501,0.179
1622551262,1592.470,0.179
1622551263,1592.438,0.179
1622551264,1592.407,0.179
1622551265,1592.376,0.179
1622551266,1592.344,0.179
1622551267,1592.316,0.179
1622551268,1592.286,0.179
1622551269,1592.257,0.179
1622551270,1592.231,0.179
1622551271,1592.203,0.179
1622551272,1592.179,0.179
1622551273,1592.153,0.179
1622551274,1592.128,0.179
1622551275,1592.105,0.179
1622551276,1592.076,0.179
1622551277,1592.054,0.179
1622551278,1592.028,0.179
1622551279,1592.006,0.179
1622551280,1591.985,0.179
1622551281,1591.963,0.179
1622551282,1591.938,0.179
1622551283,1591.915,0.179
1622551284,1591.900,0.179
1622551285,1591.879,0.179
1622551286,1591.853,0.179
1622551287,1591.834,0.179
1622551288,1591.813,0.179
1622551289,1591.797,0.179
1622551290,1591.776,0.179
1622551291,1591.756,0.179
1622551292,1591.735,0.179
1622551293,1591.719,0.179
1622551294,1591.697,0.179
1622551295,1591.680,0.179
1622551296,1591.662,0.179
1622551297,1591.642,0.179
1622551298,1591.628,0.179
1622551299,1591.608,0.179
1622551300,1591.594,0.179
1622551301,1591.571,0.179
1622551302,1591.561,0.179
1622551303,1591.540,0.179
1622551304,1591.522,0.179
1622551305,1591.509,0.179
1622551306,1591.491,0.179
1622551307,1591.478,0.179
1622551308,1591.464,0.179
1622551309,1591.448,0.179
1622551310,1591.438,0.179
1622551311,1591.420,0.179
1622551312,1591.407,0.179
1622551313,1591.395,0.179
1622551314,1591.380,0.179
1622551315,1591.367,0.179
1622551316,1591.352,0.179
1622551317,1591.335,0.179
1622551318,1591.326,0.179
1622551319,1591.308,0.179
1622551320,1591.304,-0.001
1622551321,1591.437,-0.001
1622551322,1591.577,-0.001
1622551323,1591.716,-0.001
1622551324,1591.845,-0.001
1622551325,1591.957,-0.001
1622551326,1592.055,-0.001
1622551327,1592.144,-0.001
1622551328,1592.250,-0.001
1622551329,1592.325,-0.001
1622551330,1592.409,-0.001
1622551331,1592.491,-0.001
1622551332,1592.557,-0.001
1622551333,1592.630,-0.001
1622551334,1592.693,-0.001
1622551335,1592.769,-0.001
1622551336,1592.824,-0.001
1622551337,1592.877,-0.001
1622551338,1592.940,-0.001
1622551339,1592.990,-0.001
1622551340,1593.045,-0.001
1622551341,1593.101,-0.001
1622551342,1593.141,-0.001
1622551343,1593.204,-0.001
1622551344,1593.242,-0.001
1622551345,1593.286,-0.001
1622551346,1593.345,-0.001
1622551347,1593.377,-0.001
1622551348,1593.431,-0.001
1622551349,1593.461,-0.001
1622551350,1593.507,-0.001
1622551351,1593.555,-0.001
1622551352,1593.581,-0.001
1622551353,1593.627,-0.001
1622551354,1593.660,-0.001
1622551355,1593.705,-0.001
1622551356,1593.742,-0.001
1622551357,1593.763,-0.001
1622551358,1593.817,-0.001
1622551359,1593.839,-0.001
1622551360,1593.878,-0.001
1622551361,1593.913,-0.001
1622551362,1593.936,-0.001
1622551363,1593.977,-0.001
1622551364,1593.998,-0.001
1622551365,1594.036,-0.001
1622551366,1594.070,-0.001
1622551367,1594.088,-0.001
1622551368,1594.125,-0.001
1622551369,1594.144,-0.001
1622551370,1594.175,-0.001
1622551371,1594.201,-0.001
1622551372,1594.223,-0.001
1622551373,1594.255,-0.001
1622551374,1594.278,0.000
1622551375,1594.306,0.000
1622551376,1594.324,0.000
1622551377,1594.350,0.000
1622551378,1594.375,0.000
1622551379,1594.392,0.000
1622551380,1594.421,0.000
1622551381,1594.441,0.000
1622551382,1594.461,0.000
1622551383,1594.482,0.000
1622551384,1594.504,0.000
1622551385,1594.525,0.000
1622551386,1594.544,0.000
1622551387,1594.571,0.000
1622551388,1594.586,0.000
1622551389,1594.602,0.000
1622551390,1594.620,0.000
1622551391,1594.638,0.000
1622551392,1594.656,0.000
1622551393,1594.679,0.000
1622551394,1594.694,0.000
1622551395,1594.712,0.000
1622551396,1594.734,0.000
1622551397,1594.748,0.000
1622551398,1594.762,0.000
1622551399,1594.774,0.000
1622551400,1594.793,0.000
1622551401,1594.813,0.000
1622551402,1594.822,0.000
1622551403,1594.846,0.000
1622551404,1594.857,0.000
1622551405,1594.875,0.000
1622551406,1594.887,0.000
1622551407,1594.903,0.000
1622551408,1594.921,0.000
1622551409,1594.935,0.000
1622551410,1594.945,0.000
1622551411,1594.961,0.000
1622551412,1594.976,0.000
1622551413,1594.993,0.000
1622551414,1595.005,0.000
1622551415,1595.016,0.000
1622551416,1595.032,0.000
1622551417,1595.046,0.000
1622551418,1595.058,0.000
1622551419,1595.075,0.000
1622551420,1595.086,0.000
1622551421,1595.100,0.000
1622551422,1595.110,0.000
1622551423,1595.123,0.000
1622551424,1595.140,0.000
1622551425,1595.154,0.000
1622551426,1595.153,0.000
1622551427,1595.172,0.000
1622551428,1595.176,0.000
1622551429,1595.189,0.000
1622551430,1595.204,0.000
1622551431,1595.207,0.000
1622551432,1595.226,0.000
1622551433,1595.231,0.000
1622551434,1595.240,0.000
1622551435,1595.254,0.000
1622551436,1595.260,0.000
1622551437,1595.277,0.000
1622551438,1595.283,0.000
1622551439,1595.297,0.000
1622551440,1595.303,0.000
1622551441,1595.316,0.000
1622551442,1595.326,0.000
1622551443,1595.333,0.000
1622551444,1595.343,0.000
1622551445,1595.349,0.000
1622551446,1595.358,0.000
1622551447,1595.370,0.000
1622551448,1595.378,0.000
1622551449,1595.386,0.000
1622551450,1595.397,0.000
1622551451,1595.408,0.000
1622551452,1595.415,0.000
1622551453,1595.423,0.000
1622551454,1595.433,0.000
1622551455,1595.438,0.000
1622551456,1595.450,0.000
1622551457,1595.452,0.000
1622551458,1595.464,0.000
1622551459,1595.472,0.000
1622551460,1595.476,0.000
1622551461,1595.484,0.000
1622551462,1595.497,0.000
1622551463,1595.502,0.000
1622551464,1595.508,0.000
1622551465,1595.515,0.000
1622551466,1595.521,0.000
1622551467,1595.527,0.000
1622551468,1595.531,0.000
1622551469,1595.538,0.000
1622551470,1595.542,0.000
1622551471,1595.549,0.000
1622551472,1595.563,0.000
1622551473,1595.564,0.000
1622551474,1595.571,0.000
1622551475,1595.575,0.000
1622551476,1595.587,0.000
1622551477,1595.590,0.000
1622551478,1595.599,0.000
1622551479,1595.606,0.000
1622551480,1595.611,0.000
1622551481,1595.616,0.000
1622551482,1595.620,0.000
1622551483,1595.626,0.000
1622551484,1595.631,0.000
1622551485,1595.643,0.000
1622551486,1595.644,0.000
1622551487,1595.651,0.000
1622551488,1595.658,0.000
1622551489,1595.661,0.000
1622551490,1595.668,0.000
1622551491,1595.670,0.000
1622551492,1595.674,0.000
1622551493,1595.683,0.000
1622551494,1595.688,0.000
1622551495,1595.694,0.000
1622551496,1595.699,0.000
1622551497,1595.703,0.000
1622551498,1595.708,0.000
1622551499,1595.710,0.000
1622551500,1595.719,0.000
1622551501,1595.721,0.000
1622551502,1595.729,0.000
1622551503,1595.737,0.000
1622551504,1595.738,0.000
1622551505,1595.740,0.000
1622551506,1595.742,0.000
1622551507,1595.747,0.000
1622551508,1595.757,0.000
1622551509,1595.757,0.000
1622551510,1595.758,0.000
1622551511,1595.767,0.000
1622551512,1595.764,0.000
1622551513,1595.774,0.000
1622551514,1595.782,0.000
1622551515,1595.783,0.000
1622551516,1595.784,0.000
1622551517,1595.793,0.000
1622551518,1595.796,0.000
1622551519,1595.794,0.000
1622551520,1595.803,0.000
1622551521,1595.803,0.000
1622551522,1595.811,0.000
1622551523,1595.814,0.000
1622551524,1595.814,0.000
1622551525,1595.814,0.000
1622551526,1595.821,0.000
1622551527,1595.828,0.000
1622551528,1595.828,0.000
1622551529,1595.830,0.000
1622551530,1595.833,0.000
1622551531,1595.845,0.000
1622551532,1595.840,0.000
1622551533,1595.849,0.000
1622551534,1595.850,0.000
1622551535,1595.856,0.000
1622551536,1595.856,0.000
1622551537,1595.857,0.000
1622551538,1595.862,0.000
1622551539,1595.865,0.000
1622551540,1595.868,0.000
1622551541,1595.872,0.000
1622551542,1595.878,0.000
1622551543,1595.882,0.000
1622551544,1595.886,0.000
1622551545,1595.886,0.000
1622551546,1595.896,0.000
1622551547,1595.896,0.000
1622551548,1595.898,0.000
1622551549,1595.902,0.000
1622551550,1595.899,0.000
1622551551,1595.907,0.000
1622551552,1595.908,0.000
1622551553,1595.912,0.000
1622551554,1595.917,0.000
1622551555,1595.917,0.000
1622551556,1595.923,0.000
1622551557,1595.923,0.000
1622551558,1595.922,0.000
1622551559,1595.929,0.000
1622551560,1595.927,0.000
1622551561,1595.931,0.000
1622551562,1595.935,0.000
1622551563,1595.931,0.000
1622551564,1595.940,0.000
1622551565,1595.936,0.000
1622551566,1595.944,0.000
1622551567,1595.947,0.000
1622551568,1595.946,0.000
1622551569,1595.949,0.000
1622551570,1595.950,0.000
1622551571,1595.951,0.000
1622551572,1595.957,0.000
1622551573,1595.955,0.000
1622551574,1595.960,0.000
1622551575,1595.962,0.000
1622551576,1595.961,0.000
1622551577,1595.968,0.000
1622551578,1595.967,0.000
1622551579,1595.967,0.000
1622551580,1595.972,0.000
1622551581,1595.970,0.000
1622551582,1595.978,0.000
1622551583,1595.982,0.000
1622551584,1595.976,0.000
1622551585,1595.979,0.000
1622551586,1595.984,0.000
1622551587,1595.980,0.000
1622551588,1595.988,0.000
1622551589,1595.991,0.000
1622551590,1595.990,0.000
1622551591,1595.991,0.000
1622551592,1595.992,0.000
1622551593,1595.996,0.000
1622551594,1595.996,0.000
1622551595,1595.996,0.000
1622551596,1596.003,0.000
1622551597,1596.002,0.000
1622551598,1596.004,0.000
1622551599,1596.006,0.000
1622551600,1596.005,0.000
1622551601,1596.010,0.000
1622551602,1596.010,0.000
1622551603,1596.013,0.000
1622551604,1596.008,0.000
1622551605,1596.017,0.000
1622551606,1596.018,0.000
1622551607,1596.015,0.000
1622551608,1596.018,0.000
1622551609,1596.018,0.000
1622551610,1596.021,0.000
1622551611,1596.022,0.000
1622551612,1596.026,0.000
1622551613,1596.026,0.000
1622551614,1596.026,0.000
1622551615,1596.030,0.000
1622551616,1596.034,0.000
1622551617,1596.031,0.000
1622551618,1596.035,0.000
1622551619,1596.037,0.000
1622551620,1596.037,0.000
1622551621,1596.040,0.000
1622551622,1596.037,0.000
1622551623,1596.041,0.000
1622551624,1596.041,0.000
1622551625,1596.047,0.000
1622551626,1596.044,0.000
1622551627,1596.043,0.000
1622551628,1596.046,0.000
1622551629,1596.046,0.000
1622551630,1596.047,0.000
1622551631,1596.048,0.000
1622551632,1596.050,0.000
1622551633,1596.055,0.000
1622551634,1596.051,0.000
1622551635,1596.054,0.000
1622551636,1596.054,0.000
1622551637,1596.054,0.000
1622551638,1596.055,0.000
1622551639,1596.056,0.000
1622551640,1596.061,0.000
1622551641,1596.060,0.000
1622551642,1596.064,0.000
1622551643,1596.065,0.000
1622551644,1596.066,0.000
1622551645,1596.066,0.000
1622551646,1596.063,0.000
1622551647,1596.062,0.000
1622551648,1596.067,0.000
1622551649,1596.069,0.000
1622551650,1596.071,0.000
1622551651,1596.066,0.000
1622551652,1596.068,0.000
1622551653,1596.067,0.000
1622551654,1596.068,0.000
1622551655,1596.073,0.000
1622551656,1596.070,0.000
1622551657,1596.072,0.000
1622551658,1596.073,0.000
1622551659,1596.072,0.000
1622551660,1596.071,0.000
1622551661,1596.069,0.000
1622551662,1596.073,0.000
1622551663,1596.073,0.000
1622551664,1596.072,0.000
1622551665,1596.073,0.000
1622551666,1596.074,0.000
1622551667,1596.072,0.000
1622551668,1596.076,0.000
1622551669,1596.076,0.000
1622551670,1596.076,0.000
1622551671,1596.076,0.000
1622551672,1596.077,0.000
1622551673,1596.077,0.000
1622551674,1596.074,0.000
1622551675,1596.079,0.000
1622551676,1596.080,0.000
1622551677,1596.081,0.000
1622551678,1596.078,0.000
1622551679,1596.079,0.000
1622551680,1596.083,0.000
1622551681,1596.081,0.000
1622551682,1596.086,0.000
1622551683,1596.082,0.000
1622551684,1596.080,0.000
1622551685,1596.086,0.000
1622551686,1596.085,0.000
1622551687,1596.088,0.000
1622551688,1596.084,0.000
1622551689,1596.085,0.000
1622551690,1596.083,0.000
1622551691,1596.087,0.000
1622551692,1596.087,0.000
1622551693,1596.088,0.000
1622551694,1596.089,0.000
1622551695,1596.091,0.000
1622551696,1596.088,0.000
1622551697,1596.094,0.000
1622551698,1596.090,0.000
1622551699,1596.091,0.000
1622551700,1596.097,0.000
1622551701,1596.090,0.000
1622551702,1596.095,0.000
1622551703,1596.095,0.000
1622551704,1596.095,0.000
1622551705,1596.097,0.000
1622551706,1596.093,0.000
1622551707,1596.097,0.000
1622551708,1596.099,0.000
1622551709,1596.097,0.000
1622551710,1596.094,0.000
1622551711,1596.097,0.000
1622551712,1596.098,0.000
1622551713,1596.100,0.000
1622551714,1596.098,0.000
1622551715,1596.101,0.000
1622551716,1596.095,0.000
1622551717,1596.099,0.000
1622551718,1596.099,0.000
1622551719,1596.099,0.000
1622551720,1596.103,0.000
1622551721,1596.097,0.000
1622551722,1596.098,0.000
1622551723,1596.099,0.000
1622551724,1596.098,0.000
1622551725,1596.100,0.000
1622551726,1596.100,0.000
1622551727,1596.099,0.000
1622551728,1596.103,0.000
1622551729,1596.100,0.000
1622551730,1596.102,0.000
1622551731,1596.101,0.000
1622551732,1596.104,0.000
1622551733,1596.098,0.000
1622551734,1596.098,0.000
1622551735,1596.105,0.000
1622551736,1596.102,0.000
1622551737,1596.102,0.000
1622551738,1596.100,0.000
1622551739,1596.100,0.000
1622551740,1596.101,0.000
1622551741,1596.101,0.000
1622551742,1596.104,0.000
1622551743,1596.102,0.000
1622551744,1596.102,0.000
1622551745,1596.103,0.000
1622551746,1596.105,0.000
1622551747,1596.103,0.000
1622551748,1596.103,0.000
1622551749,1596.108,0.000
1622551750,1596.108,0.000
1622551751,1596.106,0.000
1622551752,1596.107,0.000
1622551753,1596.109,0.000
1622551754,1596.109,0.000
1622551755,1596.109,0.000
1622551756,1596.109,0.000
1622551757,1596.112,0.000
1622551758,1596.112,0.000
1622551759,1596.113,0.000
1622551760,1596.112,0.000
1622551761,1596.117,0.000
1622551762,1596.114,0.000
1622551763,1596.117,0.000
1622551764,1596.121,0.000
1622551765,1596.117,0.000
1622551766,1596.122,0.000
1622551767,1596.120,0.000
1622551768,1596.119,0.000
1622551769,1596.117,0.000
1622551770,1596.114,0.000
1622551771,1596.118,0.000
1622551772,1596.122,0.000
1622551773,1596.117,0.000
1622551774,1596.120,0.000
1622551775,1596.120,0.000
1622551776,1596.115,0.000
1622551777,1596.122,0.000
1622551778,1596.117,0.000
1622551779,1596.123,0.000
1622551780,1596.121,0.000
1622551781,1596.116,0.000
1622551782,1596.117,0.000
1622551783,1596.119,0.000
1622551784,1596.124,0.000
1622551785,1596.124,0.000
1622551786,1596.123,0.000
1622551787,1596.117,0.000
1622551788,1596.122,0.000
1622551789,1596.121,0.000
1622551790,1596.121,0.000
1622551791,1596.121,0.000
1622551792,1596.122,0.000
1622551793,1596.119,0.000
1622551794,1596.120,0.000
1622551795,1596.117,0.000
1622551796,1596.118,0.000
1622551797,1596.120,0.000
1622551798,1596.120,0.000
1622551799,1596.115,0.000
1622551800,1596.122,0.000
1622551801,1596.120,0.000
1622551802,1596.116,0.000
1622551803,1596.115,0.000
1622551804,1596.112,0.000
1622551805,1596.119,0.000
1622551806,1596.120,0.000
1622551807,1596.118,0.000
1622551808,1596.117,0.000
1622551809,1596.114,0.000
1622551810,1596.123,0.000
1622551811,1596.118,0.000
1622551812,1596.120,0.000
1622551813,1596.119,0.000
1622551814,1596.122,0.000
1622551815,1596.117,0.000
1622551816,1596.116,0.000
1622551817,1596.113,0.000
1622551818,1596.114,0.000
1622551819,1596.114,0.000
1622551820,1596.116,0.000
1622551821,1596.115,0.000
1622551822,1596.119,0.000
1622551823,1596.112,0.000
1622551824,1596.114,0.000
1622551825,1596.118,0.000
1622551826,1596.114,0.000
1622551827,1596.115,0.000
1622551828,1596.119,0.000
1622551829,1596.120,0.000
1622551830,1596.120,0.000
1622551831,1596.117,0.000
1622551832,1596.120,0.000
1622551833,1596.120,0.000
1622551834,1596.119,0.000
1622551835,1596.122,0.000
1622551836,1596.120,0.000
1622551837,1596.119,0.000
1622551838,1596.121,0.000
1622551839,1596.124,0.000
1622551840,1596.123,0.000
1622551841,1596.126,0.000
1622551842,1596.125,0.000
1622551843,1596.121,0.000
1622551844,1596.123,0.000
1622551845,1596.123,0.000
1622551846,1596.124,0.000
1622551847,1596.125,0.000
1622551848,1596.123,0.000
1622551849,1596.122,0.000
1622551850,1596.122,0.000
1622551851,1596.122,0.000
1622551852,1596.128,0.000
1622551853,1596.126,0.000
1622551854,1596.125,0.000
1622551855,1596.126,0.000
1622551856,1596.123,0.000
1622551857,1596.123,0.000
1622551858,1596.126,0.000
1622551859,1596.124,0.000
1622551860,1596.123,0.000
1622551861,1596.129,0.000
1622551862,1596.127,0.000
1622551863,1596.128,0.000
1622551864,1596.128,0.000
1622551865,1596.126,0.000
1622551866,1596.132,0.000
1622551867,1596.129,0.000
1622551868,1596.129,0.000
1622551869,1596.135,0.000
1622551870,1596.125,0.000
1622551871,1596.131,0.000
1622551872,1596.131,0.000
1622551873,1596.134,0.000
1622551874,1596.131,0.000
1622551875,1596.133,0.000
1622551876,1596.131,0.000
1622551877,1596.130,0.000
1622551878,1596.133,0.000
1622551879,1596.128,0.000
1622551880,1596.128,0.000
1622551881,1596.131,0.000
1622551882,1596.133,0.000
1622551883,1596.131,0.000
1622551884,1596.131,0.000
1622551885,1596.132,0.000
1622551886,1596.134,0.000
1622551887,1596.129,0.000
1622551888,1596.132,0.000
1622551889,1596.136,0.000
1622551890,1596.135,0.000
1622551891,1596.134,0.000
1622551892,1596.132,0.000
1622551893,1596.137,0.000
1622551894,1596.139,0.000
1622551895,1596.134,0.000
1622551896,1596.134,0.000
1622551897,1596.136,0.000
1622551898,1596.138,0.000
1622551899,1596.134,0.000
1622551900,1596.132,0.000
1622551901,1596.134,0.000
1622551902,1596.130,0.000
1622551903,1596.134,0.000
1622551904,1596.132,0.000
1622551905,1596.133,0.000
1622551906,1596.135,0.000
1622551907,1596.131,0.000
1622551908,1596.134,0.000
1622551909,1596.134,0.000
1622551910,1596.130,0.000
1622551911,1596.127,0.000
1622551912,1596.129,0.000
1622551913,1596.132,0.000
1622551914,1596.133,0.000
1622551915,1596.129,0.000
1622551916,1596.136,0.000
1622551917,1596.130,0.000
1622551918,1596.128,0.000
1622551919,1596.129,0.000
1622551920,1596.131,0.000
1622551921,1596.131,0.000
1622551922,1596.131,0.000
1622551923,1596.132,0.000
1622551924,1596.130,0.000
1622551925,1596.129,0.000
1622551926,1596.128,0.000
1622551927,1596.132,0.000
1622551928,1596.134,0.000
1622551929,1596.133,0.000
1622551930,1596.133,0.000
1622551931,1596.133,0.000
1622551932,1596.130,0.000
1622551933,1596.128,0.000
1622551934,1596.123,0.000
1622551935,1596.136,0.000
1622551936,1596.132,0.000
1622551937,1596.127,0.000
1622551938,1596.130,0.000
1622551939,1596.130,0.000
1622551940,1596.132,0.000
1622551941,1596.132,0.000
1622551942,1596.129,0.000
1622551943,1596.134,0.000
1622551944,1596.128,0.000
1622551945,1596.131,0.000
1622551946,1596.127,0.000
1622551947,1596.129,0.000
1622551948,1596.127,0.000
1622551949,1596.132,0.000
1622551950,1596.129,0.000
1622551951,1596.130,0.000
1622551952,1596.130,0.000
1622551953,1596.126,0.000
1622551954,1596.127,0.000
1622551955,1596.131,0.000
1622551956,1596.125,0.000
1622551957,1596.133,0.000
1622551958,1596.127,0.000
1622551959,1596.129,0.000
1622551960,1596.130,0.000
1622551961,1596.127,0.000
1622551962,1596.126,0.000
1622551963,1596.123,0.000
1622551964,1596.121,0.000
1622551965,1596.126,0.000
1622551966,1596.122,0.000
1622551967,1596.124,0.000
1622551968,1596.122,0.000
1622551969,1596.121,0.000
1622551970,1596.121,0.000
1622551971,1596.119,0.000
1622551972,1596.124,0.000
1622551973,1596.120,0.000
1622551974,1596.123,0.000
1622551975,1596.121,0.000
1622551976,1596.125,0.000
1622551977,1596.121,0.000
1622551978,1596.122,0.000
1622551979,1596.123,0.000
1622551980,1596.124,0.000
1622551981,1596.124,0.000
1622551982,1596.123,0.000
1622551983,1596.119,0.000
1622551984,1596.122,0.000
1622551985,1596.121,0.000
1622551986,1596.122,0.000
1622551987,1596.122,0.000
1622551988,1596.124,0.000
1622551989,1596.127,0.000
1622551990,1596.122,0.000
1622551991,1596.126,0.000
1622551992,1596.123,0.000
1622551993,1596.120,0.000
1622551994,1596.124,0.000
1622551995,1596.125,0.000
1622551996,1596.125,0.000
1622551997,1596.125,0.000
1622551998,1596.123,0.000
1622551999,1596.126,0.000
1622552000,1596.124,0.000
1622552001,1596.127,0.000
1622552002,1596.123,0.000
1622552003,1596.124,0.000
1622552004,1596.124,0.000
1622552005,1596.120,0.000
1622552006,1596.122,0.000
1622552007,1596.122,0.000
1622552008,1596.122,0.000
1622552009,1596.118,0.000
1622552010,1596.118,0.000
1622552011,1596.121,0.000
1622552012,1596.118,0.000
1622552013,1596.118,0.000
1622552014,1596.116,0.000
1622552015,1596.117,0.000
1622552016,1596.120,0.000
1622552017,1596.114,0.000
1622552018,1596.116,0.000
1622552019,1596.115,0.000
1622552020,1596.112,0.000
1622552021,1596.123,0.000
1622552022,1596.114,-0.002
1622552023,1596.118,-0.001
1622552024,1596.118,-0.002
1622552025,1596.115,-0.002
1622552026,1596.134,-0.002
1622552027,1596.123,-0.002
1622552028,1596.129,-0.002
1622552029,1596.120,-0.002
1622552030,1596.124,-0.002
1622552031,1596.132,-0.002
1622552032,1596.119,-0.002
1622552033,1596.139,-0.002
1622552034,1596.128,-0.002
1622552035,1596.127,-0.002
1622552036,1596.135,-0.002
1622552037,1596.119,-0.002
1622552038,1596.130,-0.002
1622552039,1596.125,-0.002
1622552040,1596.130,-0.002
1622552041,1596.129,-0.002
1622552042,1596.123,-0.002
1622552043,1596.136,-0.002
1622552044,1596.125,-0.002
1622552045,1596.128,-0.002
1622552046,1596.130,-0.002
1622552047,1596.123,-0.002
1622552048,1596.137,-0.002
1622552049,1596.132,-0.002
1622552050,1596.130,-0.002
1622552051,1596.135,-0.002
1622552052,1596.133,-0.002
1622552053,1596.141,-0.002
1622552054,1596.141,-0.002
1622552055,1595.943,0.239
1622552056,1595.611,0.239
1622552057,1595.345,0.239
1622552058,1595.102,0.239
1622552059,1594.849,0.239
1622552060,1594.649,0.239
1622552061,1594.456,0.239
1622552062,1594.276,0.239
1622552063,1594.100,0.239
1622552064,1593.934,0.239
1622552065,1593.780,0.239
1622552066,1593.639,0.239
1622552067,1593.481,0.239
1622552068,1593.353,0.239
1622552069,1593.217,0.239
1622552070,1593.096,0.239
1622552071,1592.966,0.239
1622552072,1592.848,0.239
1622552073,1592.741,0.239
1622552074,1592.615,0.239
1622552075,1592.512,0.239
1622552076,1592.414,0.239
1622552077,1592.313,0.239
1622552078,1592.204,0.239
1622552079,1592.107,0.239
1622552080,1592.020,0.239
1622552081,1591.930,0.239
1622552082,1591.830,0.239
1622552083,1591.747,0.239
1622552084,1591.661,0.239
1622552085,1591.582,0.239
1622552086,1591.489,0.239
1622552087,1591.412,0.239
1622552088,1591.337,0.239
1622552089,1591.249,0.239
1622552090,1591.177,0.239
1622552091,1591.104,0.239
1622552092,1591.030,0.239
1622552093,1590.955,0.239
1622552094,1590.882,0.239
1622552095,1590.814,0.239
1622552096,1590.746,0.239
1622552097,1590.682,0.239
1622552098,1590.611,0.239
1622552099,1590.548,0.239
1622552100,1590.493,0.239
1622552101,1590.421,0.239
1622552102,1590.365,0.239
1622552103,1590.302,0.239
1622552104,1590.255,0.239
1622552105,1590.191,0.239
1622552106,1590.136,0.239
1622552107,1590.080,0.239
1622552108,1590.019,0.239
1622552109,1589.968,0.239
1622552110,1589.916,0.239
1622552111,1589.869,0.239
1622552112,1589.815,0.239
1622552113,1589.762,0.239
1622552114,1589.713,0.239
1622552115,1589.665,0.239
1622552116,1589.609,0.239
1622552117,1589.570,0.239
1622552118,1589.525,0.239
1622552119,1589.480,0.239
1622552120,1589.428,0.239
1622552121,1589.383,0.239
1622552122,1589.342,0.239
1622552123,1589.295,0.239
1622552124,1589.253,0.239
1622552125,1589.211,0.239
1622552126,1589.171,0.239
1622552127,1589.124,0.239
1622552128,1589.089,0.239
1622552129,1589.050,0.239
1622552130,1589.013,0.239
1622552131,1588.965,0.239
1622552132,1588.933,0.239
1622552133,1588.893,0.239
1622552134,1588.860,0.239
1622552135,1588.820,0.239
1622552136,1588.781,0.239
1622552137,1588.744,0.239
1622552138,1588.712,0.239
1622552139,1588.674,0.239
1622552140,1588.638,0.239
1622552141,1588.609,0.239
1622552142,1588.573,0.239
1622552143,1588.541,0.239
1622552144,1588.515,0.239
1622552145,1588.479,0.239
1622552146,1588.447,0.239
1622552147,1588.414,0.239
1622552148,1588.384,0.239
1622552149,1588.355,0.239
1622552150,1588.324,0.239
1622552151,1588.300,0.239
1622552152,1588.271,0.239
1622552153,1588.235,0.239
1622552154,1588.211,0.237
1622552155,1588.375,-0.002
1622552156,1588.619,-0.002
1622552157,1588.861,-0.002
1622552158,1589.066,-0.002
1622552159,1589.241,-0.002
1622552160,1589.419,-0.002
1622552161,1589.597,-0.002
1622552162,1589.745,-0.002
1622552163,1589.883,-0.002
1622552164,1590.018,-0.002
1622552165,1590.157,-0.002
1622552166,1590.269,-0.002
1622552167,1590.384,-0.002
1622552168,1590.491,-0.002
1622552169,1590.607,-0.002
1622552170,1590.707,-0.002
1622552171,1590.798,-0.002
1622552172,1590.905,-0.002
1622552173,1590.993,-0.002
1622552174,1591.079,-0.002
1622552175,1591.165,-0.002
1622552176,1591.254,-0.002
1622552177,1591.330,-0.002
1622552178,1591.411,-0.002
1622552179,1591.483,-0.002
1622552180,1591.566,-0.002
1622552181,1591.631,-0.002
1622552182,1591.706,-0.002
1622552183,1591.769,-0.002
1622552184,1591.842,-0.002
1622552185,1591.906,-0.002
1622552186,1591.970,-0.002
1622552187,1592.033,-0.002
1622552188,1592.102,-0.002
1622552189,1592.165,-0.002
1622552190,1592.215,-0.002
1622552191,1592.279,-0.002
1622552192,1592.329,-0.002
1622552193,1592.387,-0.002
1622552194,1592.439,-0.002
1622552195,1592.496,-0.002
1622552196,1592.550,-0.002
1622552197,1592.597,-0.002
1622552198,1592.645,-0.002
1622552199,1592.695,-0.002
1622552200,1592.749,-0.002
1622552201,1592.791,-0.002
1622552202,1592.843,-0.002
1622552203,1592.893,-0.002
1622552204,1592.935,-0.002
1622552205,1592.977,-0.002
1622552206,1593.027,-0.002
1622552207,1593.069,-0.002
1622552208,1593.105,-0.002
1622552209,1593.149,-0.002
1622552210,1593.194,-0.002
1622552211,1593.229,-0.002
1622552212,1593.267,-0.002
1622552213,1593.308,-0.002
1622552214,1593.350,-0.002
1622552215,1593.380,-0.002
1622552216,1593.415,-0.002
1622552217,1593.453,-0.002
1622552218,1593.496,-0.002
1622552219,1593.521,-0.002
1622552220,1593.555,-0.002
1622552221,1593.592,-0.002
1622552222,1593.623,-0.002
1622552223,1593.656,-0.002
1622552224,1593.681,-0.002
1622552225,1593.722,-0.002
1622552226,1593.754,-0.002
1622552227,1593.781,-0.002
1622552228,1593.815,-0.002
1622552229,1593.846,-0.002
1622552230,1593.875,-0.002
1622552231,1593.903,-0.002
1622552232,1593.931,-0.002
1622552233,1593.961,-0.002
1622552234,1593.986,-0.002
1622552235,1594.016,-0.002
1622552236,1594.036,-0.002
1622552237,1594.069,-0.002
1622552238,1594.094,-0.002
1622552239,1594.117,-0.002
1622552240,1594.146,-0.002
1622552241,1594.168,-0.002
1622552242,1594.190,-0.002
1622552243,1594.214,-0.002
1622552244,1594.243,-0.002
1622552245,1594.264,-0.002
1622552246,1594.285,-0.002
1622552247,1594.309,-0.002
1622552248,1594.334,-0.002
1622552249,1594.356,-0.002
1622552250,1594.379,-0.002
1622552251,1594.395,-0.002
1622552252,1594.423,-0.002
1622552253,1594.442,-0.002
1622552254,1594.461,-0.002
1622552255,1594.249,0.239
1622552256,1593.980,0.239
1622552257,1593.737,0.239
1622552258,1593.512,0.239
1622552259,1593.288,0.239
1622552260,1593.102,0.239
1622552261,1592.937,0.239
1622552262,1592.773,0.239
1622552263,1592.611,0.239
1622552264,1592.472,0.239
1622552265,1592.340,0.239
1622552266,1592.210,0.239
1622552267,1592.080,0.239
1622552268,1591.962,0.239
1622552269,1591.857,0.239
1622552270,1591.750,0.239
1622552271,1591.635,0.239
1622552272,1591.534,0.239
1622552273,1591.435,0.239
1622552274,1591.333,0.239
1622552275,1591.239,0.239
1622552276,1591.156,0.239
1622552277,1591.069,0.239
1622552278,1590.976,0.239
1622552279,1590.897,0.239
1622552280,1590.818,0.239
1622552281,1590.742,0.239
1622552282,1590.662,0.239
1622552283,1590.588,0.239
1622552284,1590.520,0.239
1622552285,1590.450,0.239
1622552286,1590.376,0.239
1622552287,1590.309,0.239
1622552288,1590.242,0.239
1622552289,1590.171,0.239
1622552290,1590.110,0.239
1622552291,1590.050,0.239
1622552292,1589.996,0.239
1622552293,1589.927,0.239
1622552294,1589.863,0.239
1622552295,1589.809,0.239
1622552296,1589.754,0.239
1622552297,1589.693,0.239
1622552298,1589.642,0.239
1622552299,1589.592,0.239
1622552300,1589.538,0.239
1622552301,1589.488,0.239
1622552302,1589.439,0.239
1622552303,1589.391,0.239
1622552304,1589.342,0.239
1622552305,1589.289,0.239
1622552306,1589.248,0.239
1622552307,1589.208,0.239
1622552308,1589.154,0.239
1622552309,1589.108,0.239
1622552310,1589.070,0.239
1622552311,1589.030,0.239
1622552312,1588.982,0.239
1622552313,1588.940,0.239
1622552314,1588.904,0.239
1622552315,1588.864,0.239
1622552316,1588.821,0.239
1622552317,1588.785,0.239
1622552318,1588.750,0.239
1622552319,1588.709,0.239
1622552320,1588.664,0.239
1622552321,1588.631,0.239
1622552322,1588.589,0.239
1622552323,1588.557,0.239
1622552324,1588.520,0.239
1622552325,1588.486,0.239
1622552326,1588.454,0.239
1622552327,1588.420,0.239
1622552328,1588.395,0.239
1622552329,1588.361,0.239
1622552330,1588.328,0.239
1622552331,1588.294,0.239
1622552332,1588.265,0.239
1622552333,1588.232,0.239
1622552334,1588.204,0.239
1622552335,1588.173,0.239
1622552336,1588.148,0.239
1622552337,1588.112,0.239
1622552338,1588.082,0.239
1622552339,1588.053,0.239
1622552340,1588.026,0.239
1622552341,1588.000,0.239
1622552342,1587.973,0.239
1622552343,1587.948,0.239
1622552344,1587.920,0.239
1622552345,1587.893,0.239
1622552346,1587.872,0.239
1622552347,1587.843,0.239
1622552348,1587.820,0.239
1622552349,1587.795,0.239
1622552350,1587.769,0.239
1622552351,1587.747,0.239
1622552352,1587.720,0.239
1622552353,1587.699,0.239
1622552354,1587.676,0.239
1622552355,1587.840,-0.002
1622552356,1588.084,-0.002
1622552357,1588.336,-0.002
1622552358,1588.535,-0.002
1622552359,1588.730,-0.002
1622552360,1588.897,-0.002
1622552361,1589.083,-0.002
1622552362,1589.234,-0.002
1622552363,1589.375,-0.002
1622552364,1589.509,-0.002
1622552365,1589.651,-0.002
1622552366,1589.777,-0.002
1622552367,1589.889,-0.002
1622552368,1590.003,-0.002
1622552369,1590.128,-0.002
1622552370,1590.227,-0.002
1622552371,1590.327,-0.002
1622552372,1590.436,-0.002
1622552373,1590.523,-0.002
1622552374,1590.615,-0.002
1622552375,1590.705,-0.002
1622552376,1590.799,-0.002
1622552377,1590.884,-0.002
1622552378,1590.961,-0.002
1622552379,1591.038,-0.002
1622552380,1591.123,-0.002
1622552381,1591.192,-0.002
1622552382,1591.273,-0.002
1622552383,1591.338,-0.002
1622552384,1591.418,-0.002
1622552385,1591.483,-0.002
1622552386,1591.546,-0.002
1622552387,1591.620,-0.002
1622552388,1591.706,-0.002
1622552389,1591.747,-0.002
1622552390,1591.806,-0.002
1622552391,1591.870,-0.002
1622552392,1591.928,-0.002
1622552393,1591.984,-0.002
1622552394,1592.042,-0.002
1622552395,1592.100,-0.002
1622552396,1592.155,-0.002
1622552397,1592.210,-0.002
1622552398,1592.259,-0.002
1622552399,1592.318,-0.002
1622552400,1592.366,-0.002
1622552401,1592.414,-0.002
1622552402,1592.463,-0.002
1622552403,1592.514,-0.002
1622552404,1592.563,-0.002
1622552405,1592.610,-0.002
1622552406,1592.656,-0.002
1622552407,1592.703,-0.002
1622552408,1592.745,-0.002
1622552409,1592.787,-0.002
1622552410,1592.834,-0.002
1622552411,1592.875,-0.002
1622552412,1592.922,-0.002
1622552413,1592.959,-0.002
1622552414,1593.003,-0.002
1622552415,1593.045,-0.002
1622552416,1593.053,-0.002
1622552417,1593.118,-0.002
1622552418,1593.164,-0.002
1622552419,1593.196,-0.002
1622552420,1593.234,-0.002
1622552421,1593.274,0.000
1622552422,1593.291,0.000
1622552423,1593.338,0.000
1622552424,1593.375,0.000
1622552425,1593.393,0.000
1622552426,1593.431,0.000
1622552427,1593.450,0.000
1622552428,1593.480,0.000
1622552429,1593.517,0.000
1622552430,1593.538,0.000
1622552431,1593.575,0.000
1622552432,1593.600,0.000
1622552433,1593.632,0.000
1622552434,1593.664,0.000
1622552435,1593.685,0.000
1622552436,1593.725,0.000
1622552437,1593.748,0.000
1622552438,1593.772,0.000
1622552439,1593.803,0.000
1622552440,1593.822,0.000
1622552441,1593.853,0.000
1622552442,1593.881,0.000
1622552443,1593.897,0.000
1622552444,1593.938,0.000
1622552445,1593.956,0.000
1622552446,1593.980,0.000
1622552447,1594.007,0.000
1622552448,1594.025,0.000
1622552449,1594.055,0.000
1622552450,1594.074,0.000
1622552451,1594.088,0.000
1622552452,1594.120,0.000
1622552453,1594.136,0.000
1622552454,1594.171,0.000
1622552455,1594.187,0.000
1622552456,1594.208,0.000
1622552457,1594.239,0.000
1622552458,1594.247,0.000
1622552459,1594.277,0.000
1622552460,1594.296,0.000
1622552461,1594.309,0.000
1622552462,1594.337,0.000
1622552463,1594.351,0.000
1622552464,1594.373,0.000
1622552465,1594.397,0.000
1622552466,1594.404,0.000
1622552467,1594.433,0.000
1622552468,1594.444,0.000
1622552469,1594.453,0.000
1622552470,1594.479,0.000
1622552471,1594.488,0.000
1622552472,1594.510,0.000
1622552473,1594.529,0.000
1622552474,1594.533,0.000
1622552475,1594.566,0.000
1622552476,1594.573,0.000
1622552477,1594.590,0.000
1622552478,1594.608,0.000
1622552479,1594.616,0.000
1622552480,1594.642,0.000
1622552481,1594.653,0.000
1622552482,1594.667,0.000
1622552483,1594.690,0.000
1622552484,1594.696,0.000
1622552485,1594.716,0.000
1622552486,1594.731,0.000
1622552487,1594.731,0.000
1622552488,1594.760,0.000
1622552489,1594.769,0.000
1622552490,1594.784,0.000
1622552491,1594.806,0.000
1622552492,1594.803,0.000
1622552493,1594.835,0.000
1622552494,1594.834,0.000
1622552495,1594.853,0.000
1622552496,1594.870,0.000
1622552497,1594.888,0.000
1622552498,1594.906,0.000
1622552499,1594.922,0.000
1622552500,1594.939,0.000
1622552501,1594.949,0.000
1622552502,1594.958,0.000
1622552503,1594.977,0.000
1622552504,1594.989,0.000
1622552505,1595.006,0.000
1622552506,1595.019,0.000
1622552507,1595.032,0.000
1622552508,1595.047,0.000
1622552509,1595.062,0.000
1622552510,1595.072,0.000
1622552511,1595.080,0.000
1622552512,1595.097,0.000
1622552513,1595.111,0.000
1622552514,1595.118,0.000
1622552515,1595.129,0.000
1622552516,1595.145,0.000
1622552517,1595.155,0.000
1622552518,1595.171,0.000
1622552519,1595.175,0.000
1622552520,1595.192,0.000
1622552521,1595.197,0.000
1622552522,1595.207,0.000
1622552523,1595.218,0.000
1622552524,1595.228,0.000
1622552525,1595.233,0.000
1622552526,1595.252,0.000
1622552527,1595.257,0.000
1622552528,1595.270,0.000
1622552529,1595.277,0.000
1622552530,1595.285,0.000
1622552531,1595.296,0.000
1622552532,1595.307,0.000
1622552533,1595.318,0.000
1622552534,1595.322,0.000
1622552535,1595.331,0.000
1622552536,1595.340,0.000
1622552537,1595.345,0.000
1622552538,1595.357,0.000
1622552539,1595.362,0.000
1622552540,1595.376,0.000
1622552541,1595.382,0.000
1622552542,1595.390,0.000
1622552543,1595.401,0.000
1622552544,1595.406,0.000
1622552545,1595.413,0.000
1622552546,1595.425,0.000
1622552547,1595.429,0.000
1622552548,1595.436,0.000
1622552549,1595.442,0.000
1622552550,1595.453,0.000
1622552551,1595.462,0.000
1622552552,1595.461,0.000
1622552553,1595.473,0.000
1622552554,1595.478,0.000
1622552555,1595.484,0.000
1622552556,1595.490,0.000
1622552557,1595.497,0.000
1622552558,1595.505,0.000
1622552559,1595.512,0.000
1622552560,1595.514,0.000
1622552561,1595.524,0.000
1622552562,1595.527,0.000
1622552563,1595.533,0.000
1622552564,1595.542,0.000
1622552565,1595.540,0.000
1622552566,1595.554,0.000
1622552567,1595.554,0.000
1622552568,1595.563,0.000
1622552569,1595.572,0.000
1622552570,1595.572,0.000
1622552571,1595.579,0.000
1622552572,1595.583,0.000
1622552573,1595.592,0.000
1622552574,1595.598,0.000
1622552575,1595.603,0.000
1622552576,1595.614,0.000
1622552577,1595.613,0.000
1622552578,1595.620,0.000
1622552579,1595.625,0.000
1622552580,1595.632,0.000
1622552581,1595.635,0.000
1622552582,1595.640,0.000
1622552583,1595.644,0.000
1622552584,1595.650,0.000
1622552585,1595.653,0.000
1622552586,1595.662,0.000
1622552587,1595.659,0.000
1622552588,1595.665,0.000
1622552589,1595.671,0.000
1622552590,1595.675,0.000
1622552591,1595.679,0.000
1622552592,1595.681,0.000
1622552593,1595.691,0.000
1622552594,1595.692,0.000
1622552595,1595.701,0.000
1622552596,1595.706,0.000
1622552597,1595.706,0.000
1622552598,1595.712,0.000
1622552599,1595.717,0.000
1622552600,1595.718,0.000
1622552601,1595.730,0.000
1622552602,1595.727,0.000
1622552603,1595.736,0.000
1622552604,1595.734,0.000
1622552605,1595.737,0.000
1622552606,1595.743,0.000
1622552607,1595.750,0.000
1622552608,1595.750,0.000
1622552609,1595.753,0.000
1622552610,1595.754,0.000
1622552611,1595.760,0.000
1622552612,1595.763,0.000
1622552613,1595.767,0.000
1622552614,1595.768,0.000
1622552615,1595.773,0.000
1622552616,1595.775,0.000
1622552617,1595.783,0.000
1622552618,1595.785,0.000
1622552619,1595.783,0.000
1622552620,1595.789,0.000
1622552621,1595.793,0.000
1622552622,1595.792,0.000
1622552623,1595.801,0.000
1622552624,1595.799,0.000
1622552625,1595.801,0.000
1622552626,1595.805,0.000
1622552627,1595.808,0.000
1622552628,1595.811,0.000
1622552629,1595.811,0.000
1622552630,1595.814,0.000
1622552631,1595.820,0.000
1622552632,1595.819,0.000
1622552633,1595.828,0.000
1622552634,1595.827,0.000
1622552635,1595.831,0.000
1622552636,1595.837,0.000
1622552637,1595.836,0.000
1622552638,1595.841,0.000
1622552639,1595.840,0.000
1622552640,1595.844,0.000
1622552641,1595.847,0.000
1622552642,1595.849,0.000
1622552643,1595.850,0.000
1622552644,1595.850,0.000
1622552645,1595.855,0.000
1622552646,1595.857,0.000
1622552647,1595.861,0.000
1622552648,1595.864,0.000
1622552649,1595.870,0.000
1622552650,1595.866,0.000
1622552651,1595.871,0.000
1622552652,1595.870,0.000
1622552653,1595.874,0.000
1622552654,1595.875,0.000
1622552655,1595.879,0.000
1622552656,1595.878,0.000
1622552657,1595.880,0.000
1622552658,1595.879,0.000
1622552659,1595.887,0.000
1622552660,1595.884,0.000
1622552661,1595.886,0.000
1622552662,1595.890,0.000
1622552663,1595.890,0.000
1622552664,1595.894,0.000
1622552665,1595.892,0.000
1622552666,1595.897,0.000
1622552667,1595.896,0.000
1622552668,1595.897,0.000
1622552669,1595.901,0.000
1622552670,1595.901,0.000
1622552671,1595.904,0.000
1622552672,1595.905,0.000
1622552673,1595.907,0.000
1622552674,1595.910,0.000
1622552675,1595.911,0.000
1622552676,1595.915,0.000
1622552677,1595.913,0.000
1622552678,1595.918,0.000
1622552679,1595.915,0.000
1622552680,1595.917,0.000
1622552681,1595.925,0.000
1622552682,1595.921,0.000
1622552683,1595.928,0.000
1622552684,1595.925,0.000
1622552685,1595.928,0.000
1622552686,1595.932,0.000
1622552687,1595.931,0.000
1622552688,1595.931,0.000
1622552689,1595.931,0.000
1622552690,1595.932,0.000
1622552691,1595.932,0.000
1622552692,1595.937,0.000
1622552693,1595.940,0.000
1622552694,1595.941,0.000
1622552695,1595.940,0.000
1622552696,1595.942,0.000
1622552697,1595.946,0.000
1622552698,1595.948,0.000
1622552699,1595.947,0.000
1622552700,1595.946,0.000
1622552701,1595.953,0.000
1622552702,1595.948,0.000
1622552703,1595.952,0.000
1622552704,1595.946,0.000
1622552705,1595.951,0.000
1622552706,1595.953,0.000
1622552707,1595.953,0.000
1622552708,1595.955,0.000
1622552709,1595.950,0.000
1622552710,1595.957,0.000
1622552711,1595.960,0.000
1622552712,1595.958,0.000
1622552713,1595.960,0.000
1622552714,1595.957,0.000
1622552715,1595.959,0.000
1622552716,1595.959,0.000
1622552717,1595.962,0.000
1622552718,1595.964,0.000
1622552719,1595.967,0.000
1622552720,1595.964,0.000
1622552721,1595.965,0.000
1622552722,1595.969,0.000
1622552723,1595.965,0.000
1622552724,1595.964,0.000
1622552725,1595.969,0.000
1622552726,1595.966,0.000
1622552727,1595.968,0.000
1622552728,1595.970,0.000
1622552729,1595.968,0.000
1622552730,1595.972,0.000
1622552731,1595.970,0.000
1622552732,1595.971,0.000
1622552733,1595.976,0.000
1622552734,1595.974,0.000
1622552735,1595.976,0.000
1622552736,1595.973,0.000
1622552737,1595.974,0.000
1622552738,1595.975,0.000
1622552739,1595.978,0.000
1622552740,1595.981,0.000
1622552741,1595.979,0.000
1622552742,1595.982,0.000
1622552743,1595.981,0.000
1622552744,1595.981,0.000
1622552745,1595.984,0.000
1622552746,1595.981,0.000
1622552747,1595.985,0.000
1622552748,1595.981,0.000
1622552749,1595.985,0.000
1622552750,1595.986,0.000
1622552751,1595.986,0.000
1622552752,1595.983,0.000
1622552753,1595.984,0.000
1622552754,1595.987,0.000
1622552755,1595.987,0.000
1622552756,1595.987,0.000
1622552757,1595.992,0.000
1622552758,1595.989,0.000
1622552759,1595.994,0.000
1622552760,1595.991,0.000
1622552761,1595.993,0.000
1622552762,1595.990,0.000
1622552763,1595.996,0.000
1622552764,1595.994,0.000
1622552765,1595.994,0.000
1622552766,1595.995,0.000
1622552767,1595.995,0.000
1622552768,1595.995,0.000
1622552769,1595.997,0.000
1622552770,1595.997,0.000
1622552771,1595.998,0.000
1622552772,1595.997,0.000
1622552773,1595.999,0.000
1622552774,1595.996,0.000
1622552775,1596.001,0.000
1622552776,1596.001,0.000
1622552777,1596.000,0.000
1622552778,1596.000,0.000
1622552779,1595.998,0.000
1622552780,1595.999,0.000
1622552781,1595.995,0.000
1622552782,1596.004,0.000
1622552783,1596.001,0.000
1622552784,1596.003,0.000
1622552785,1596.002,0.000
1622552786,1596.000,0.000
1622552787,1596.001,0.000
1622552788,1596.004,0.000
1622552789,1595.997,0.000
1622552790,1595.999,0.000
1622552791,1596.002,0.000
1622552792,1596.002,0.000
1622552793,1595.999,0.000
1622552794,1595.999,0.000
1622552795,1596.000,0.000
1622552796,1595.999,0.000
1622552797,1596.000,0.000
1622552798,1595.997,0.000
1622552799,1595.995,0.000
1622552800,1595.997,0.000
1622552801,1595.999,0.000
1622552802,1596.001,0.000
1622552803,1595.998,0.000
1622552804,1595.998,0.000
1622552805,1595.997,0.000
1622552806,1595.995,0.000
1622552807,1596.003,0.000
1622552808,1595.997,0.000
1622552809,1595.997,0.000
1622552810,1595.998,0.000
1622552811,1595.996,0.000
1622552812,1596.000,0.000
1622552813,1595.999,0.000
1622552814,1595.997,0.000
1622552815,1595.999,0.000
1622552816,1595.997,0.000
1622552817,1596.003,0.000
1622552818,1595.997,0.000
1622552819,1596.003,0.000
1622552820,1595.995,0.000
1622552821,1595.999,0.000
1622552822,1595.996,0.000
1622552823,1595.998,0.000
1622552824,1595.998,0.000
1622552825,1595.997,0.000
1622552826,1595.997,0.000
1622552827,1596.002,0.000
1622552828,1596.000,0.000
1622552829,1595.998,0.000
1622552830,1595.999,0.000
1622552831,1595.998,0.000
1622552832,1595.998,0.000
1622552833,1596.004,0.000
1622552834,1595.997,0.000
1622552835,1596.002,0.000
1622552836,1596.003,0.000
1622552837,1596.000,0.000
1622552838,1596.003,0.000
1622552839,1596.002,0.000
1622552840,1596.002,0.000
1622552841,1596.006,0.000
1622552842,1596.005,0.000
1622552843,1596.002,0.000
1622552844,1596.006,0.000
1622552845,1596.006,0.000
1622552846,1596.001,0.000
1622552847,1596.000,0.000
1622552848,1596.007,0.000
1622552849,1596.003,0.000
1622552850,1596.007,0.000
1622552851,1596.007,0.000
1622552852,1596.011,0.000
1622552853,1596.010,0.000
1622552854,1596.007,0.000
1622552855,1596.012,0.000
1622552856,1596.008,0.000
1622552857,1596.007,0.000
1622552858,1596.009,0.000
1622552859,1596.011,0.000
1622552860,1596.010,0.000
1622552861,1596.010,0.000
1622552862,1596.011,0.000
1622552863,1596.011,0.000
1622552864,1596.012,0.000
1622552865,1596.012,0.000
1622552866,1596.011,0.000
1622552867,1596.010,0.000
1622552868,1596.011,0.000
1622552869,1596.011,0.000
1622552870,1596.012,0.000
1622552871,1596.012,0.000
1622552872,1596.015,0.000
1622552873,1596.017,0.000
1622552874,1596.014,0.000
1622552875,1596.012,0.000
1622552876,1596.011,0.000
1622552877,1596.010,0.000
1622552878,1596.016,0.000
1622552879,1596.013,0.000
1622552880,1596.014,0.000
1622552881,1596.013,0.000
1622552882,1596.016,0.000
1622552883,1596.015,0.000
1622552884,1596.012,0.000
1622552885,1596.015,0.000
1622552886,1596.014,0.000
1622552887,1596.017,0.000
1622552888,1596.014,0.000
1622552889,1596.009,0.000
1622552890,1596.014,0.000
1622552891,1596.014,0.000
1622552892,1596.012,0.000
1622552893,1596.011,0.000
1622552894,1596.011,0.000
1622552895,1596.013,0.000
1622552896,1596.014,0.000
1622552897,1596.014,0.000
1622552898,1596.012,0.000
1622552899,1596.015,0.000
1622552900,1596.013,0.000
1622552901,1596.016,0.000
1622552902,1596.016,0.000
1622552903,1596.013,0.000
1622552904,1596.015,0.000
1622552905,1596.016,0.000
1622552906,1596.015,0.000
1622552907,1596.012,0.000
1622552908,1596.013,0.000
1622552909,1596.014,0.000
1622552910,1596.013,0.000
1622552911,1596.013,0.000
1622552912,1596.016,0.000
1622552913,1596.015,0.000
1622552914,1596.013,0.000
1622552915,1596.011,0.000
1622552916,1596.014,0.000
1622552917,1596.012,0.000
1622552918,1596.012,0.000
1622552919,1596.010,0.000
1622552920,1596.011,0.000
1622552921,1596.014,0.000
1622552922,1596.010,0.000
1622552923,1596.017,0.000
1622552924,1596.011,0.000
1622552925,1596.013,0.000
1622552926,1596.019,0.000
1622552927,1596.011,0.000
1622552928,1596.019,0.000
1622552929,1596.016,0.000
1622552930,1596.011,0.000
1622552931,1596.008,0.000
1622552932,1596.012,0.000
1622552933,1596.015,0.000
1622552934,1596.011,0.000
1622552935,1596.012,0.000
1622552936,1596.011,0.000
1622552937,1596.016,0.000
1622552938,1596.011,0.000
1622552939,1596.012,0.000
1622552940,1596.012,0.000
1622552941,1596.015,0.000
1622552942,1596.014,0.000
1622552943,1596.015,0.000
1622552944,1596.012,0.000
1622552945,1596.012,0.000
1622552946,1596.009,0.000
1622552947,1596.007,0.000
1622552948,1596.013,0.000
1622552949,1596.005,0.000
1622552950,1596.009,0.000
1622552951,1596.003,0.000
1622552952,1596.008,0.000
1622552953,1596.006,0.000
1622552954,1596.007,0.000
1622552955,1596.003,0.000
1622552956,1596.003,0.000
1622552957,1596.007,0.000
1622552958,1596.000,0.000
1622552959,1596.005,0.000
1622552960,1595.999,0.000
1622552961,1596.000,0.000
1622552962,1595.999,0.000
1622552963,1595.998,0.000
1622552964,1596.000,0.000
1622552965,1595.999,0.000
1622552966,1596.000,0.000
1622552967,1595.999,0.000
1622552968,1595.999,0.000
1622552969,1596.005,0.000
1622552970,1596.000,0.000
1622552971,1596.001,0.000
1622552972,1596.002,0.000
1622552973,1596.000,0.000
1622552974,1596.002,0.000
1622552975,1595.998,0.000
1622552976,1596.003,0.000
1622552977,1596.001,0.000
1622552978,1596.002,0.000
1622552979,1596.005,0.000
1622552980,1596.001,0.000
1622552981,1596.010,0.000
1622552982,1596.005,0.000
1622552983,1596.006,0.000
1622552984,1596.008,0.000
1622552985,1596.004,0.000
1622552986,1596.009,0.000
1622552987,1596.007,0.000
1622552988,1596.005,0.000
1622552989,1596.004,0.000
1622552990,1596.003,0.000
1622552991,1596.007,0.000
1622552992,1596.003,0.000
1622552993,1596.000,0.000
1622552994,1596.002,0.000
1622552995,1596.002,0.000
1622552996,1596.005,0.000
1622552997,1595.999,0.000
1622552998,1596.005,0.000
1622552999,1596.005,0.000
1622553000,1596.004,0.000
1622553001,1596.005,0.000
1622553002,1596.003,0.000
1622553003,1596.007,0.000
1622553004,1596.001,0.000
1622553005,1595.999,0.000
1622553006,1596.004,0.000
1622553007,1595.999,0.000
1622553008,1596.001,0.000
1622553009,1596.001,0.000
1622553010,1595.999,0.000
1622553011,1596.003,0.000
1622553012,1595.996,0.000
1622553013,1595.998,0.000
1622553014,1595.998,0.000
1622553015,1595.997,0.000
1622553016,1595.999,0.000
1622553017,1595.996,0.000
1622553018,1596.002,0.000
1622553019,1595.997,0.000
1622553020,1595.998,0.000
1622553021,1595.998,0.000
1622553022,1595.993,0.000
1622553023,1595.996,0.000
1622553024,1596.000,0.000
1622553025,1595.996,0.000
1622553026,1595.998,0.000
1622553027,1596.000,0.000
1622553028,1596.001,0.000
1622553029,1595.998,0.000
1622553030,1595.998,0.000
1622553031,1595.999,0.000
1622553032,1596.004,0.000
1622553033,1596.001,0.000
1622553034,1595.998,0.000
1622553035,1596.000,0.000
1622553036,1596.004,0.000
1622553037,1596.001,0.000
1622553038,1596.006,0.000
1622553039,1596.006,0.000
1622553040,1596.004,0.000
1622553041,1596.009,0.000
1622553042,1596.006,0.000
1622553043,1596.005,0.000
1622553044,1596.006,0.000
1622553045,1596.005,0.000
1622553046,1596.005,0.000
1622553047,1596.004,0.000
1622553048,1596.003,0.000
1622553049,1596.008,0.000
1622553050,1596.006,0.000
1622553051,1596.010,0.000
1622553052,1596.009,0.000
1622553053,1596.007,0.000
1622553054,1596.006,0.000
1622553055,1596.004,0.000
1622553056,1596.011,0.000
1622553057,1596.007,0.000
1622553058,1596.008,0.000
1622553059,1596.010,0.000
1622553060,1596.008,0.000
1622553061,1596.011,0.000
1622553062,1596.014,0.000
1622553063,1596.006,0.000
1622553064,1596.010,0.000
1622553065,1596.008,0.000
1622553066,1596.013,0.000
1622553067,1596.010,0.000
1622553068,1596.008,0.000
1622553069,1596.016,0.000
1622553070,1596.013,0.000
1622553071,1596.011,0.000
1622553072,1596.012,0.000
1622553073,1596.013,0.000
1622553074,1596.012,0.000
1622553075,1596.014,0.000
1622553076,1596.012,0.000
1622553077,1596.016,0.000
1622553078,1596.011,0.000
1622553079,1596.008,0.000
1622553080,1596.013,0.000
1622553081,1596.012,0.000
1622553082,1596.015,0.000
1622553083,1596.012,0.000
1622553084,1596.010,0.000
1622553085,1596.013,0.000
1622553086,1596.009,0.000
1622553087,1596.009,0.000
1622553088,1596.013,0.000
1622553089,1596.012,0.000
1622553090,1596.012,0.000
1622553091,1596.013,0.000
1622553092,1596.011,0.000
1622553093,1596.014,0.000
1622553094,1596.012,0.000
1622553095,1596.011,0.000
1622553096,1596.010,0.000
1622553097,1596.009,0.000
1622553098,1596.010,0.000
1622553099,1596.009,0.000
1622553100,1596.009,0.000
1622553101,1596.011,0.000
1622553102,1596.007,0.000
1622553103,1596.006,0.000
1622553104,1596.007,0.000
1622553105,1596.009,0.000
1622553106,1596.011,0.000
1622553107,1596.009,0.000
1622553108,1596.008,0.000
1622553109,1596.009,0.000
1622553110,1596.008,0.000
1622553111,1596.007,0.000
1622553112,1596.004,0.000
1622553113,1596.007,0.000
1622553114,1596.010,0.000
1622553115,1596.008,0.000
1622553116,1596.005,0.000
1622553117,1596.005,0.000
1622553118,1596.008,0.000
1622553119,1596.008,0.000
1622553120,1596.010,0.000
1622553121,1596.010,0.000
1622553122,1596.007,0.000
1622553123,1596.006,0.000
1622553124,1596.007,0.000
1622553125,1596.011,0.000
1622553126,1596.009,0.000
1622553127,1596.012,0.000
1622553128,1596.013,0.000
1622553129,1596.006,0.000
1622553130,1596.007,0.000
1622553131,1596.005,0.000
1622553132,1596.004,0.000
1622553133,1596.007,0.000
1622553134,1596.001,0.000
1622553135,1596.005,0.000
1622553136,1596.007,0.000
1622553137,1596.007,0.000
1622553138,1596.007,0.000
1622553139,1596.004,0.000
1622553140,1596.006,0.000
1622553141,1596.005,0.000
1622553142,1596.002,0.000
1622553143,1596.004,0.000
1622553144,1596.005,0.000
1622553145,1596.007,0.000
1622553146,1596.009,0.000
1622553147,1596.006,0.000
1622553148,1596.007,0.000
1622553149,1596.005,0.000
1622553150,1596.003,0.000
1622553151,1596.005,0.000
1622553152,1596.000,0.000
1622553153,1596.003,0.000
1622553154,1596.000,0.000
1622553155,1596.006,0.000
1622553156,1595.999,0.000
1622553157,1596.002,0.000
1622553158,1596.001,0.000
1622553159,1596.001,0.000
1622553160,1596.001,0.000
1622553161,1596.001,0.000
1622553162,1595.999,0.000
1622553163,1595.996,0.000
1622553164,1595.998,0.000
1622553165,1596.003,0.000
1622553166,1596.000,0.000
1622553167,1595.999,0.000
1622553168,1595.999,0.000
1622553169,1595.998,0.000
1622553170,1595.997,0.000
1622553171,1595.998,0.000
1622553172,1595.993,0.000
1622553173,1596.000,0.000
1622553174,1595.997,0.000
1622553175,1595.999,0.000
1622553176,1595.999,0.000
1622553177,1595.997,0.000
1622553178,1596.004,0.000
1622553179,1595.996,0.000
1622553180,1595.997,0.000
1622553181,1595.998,0.000
1622553182,1595.998,0.000
1622553183,1595.998,0.000
1622553184,1596.001,0.000
1622553185,1596.001,0.000
1622553186,1596.002,0.000
1622553187,1595.994,0.000
1622553188,1596.000,0.000
1622553189,1596.001,0.000
1622553190,1596.001,0.000
1622553191,1595.998,0.000
1622553192,1595.998,0.000
1622553193,1596.002,0.000
1622553194,1595.997,0.000
1622553195,1595.999,0.000
1622553196,1596.001,0.000
1622553197,1595.997,0.000
1622553198,1596.004,0.000
1622553199,1595.998,0.000
1622553200,1595.999,0.000
1622553201,1596.004,0.000
1622553202,1596.000,0.000
1622553203,1595.998,0.000
1622553204,1595.999,0.000
1622553205,1595.998,0.000
1622553206,1596.002,0.000
1622553207,1595.999,0.000
1622553208,1596.000,0.000
1622553209,1595.998,0.000
1622553210,1595.994,0.000
1622553211,1596.001,0.000
1622553212,1596.000,0.000
1622553213,1595.999,0.000
1622553214,1595.998,0.000
1622553215,1596.000,0.000
1622553216,1596.004,0.000
1622553217,1595.996,0.000
1622553218,1596.001,0.000
1622553219,1596.002,0.000
1622553220,1595.997,0.000
1622553221,1596.001,0.000
1622553222,1596.000,0.000
1622553223,1596.000,0.000
1622553224,1596.004,0.000
1622553225,1596.003,0.000
1622553226,1596.000,0.000
1622553227,1595.999,0.000
1622553228,1596.001,0.000
1622553229,1595.997,0.000
1622553230,1596.000,0.000
1622553231,1595.995,0.000
1622553232,1595.996,0.000
1622553233,1595.995,0.000
1622553234,1595.997,0.000
1622553235,1595.998,0.000
1622553236,1595.994,0.000
1622553237,1595.999,0.000
1622553238,1595.997,0.000
1622553239,1595.999,0.000
1622553240,1595.991,0.000
1622553241,1595.993,0.000
1622553242,1595.998,0.000
1622553243,1595.992,0.000
1622553244,1595.996,0.000
1622553245,1595.992,0.000
1622553246,1595.993,0.000
1622553247,1595.994,0.000
1622553248,1595.996,0.000
1622553249,1595.993,0.000
1622553250,1595.994,0.000
1622553251,1595.991,0.000
1622553252,1595.992,0.000
1622553253,1595.992,0.000
1622553254,1595.997,0.000
1622553255,1595.992,0.000
1622553256,1595.996,0.000
1622553257,1595.993,0.000
1622553258,1595.994,0.000
1622553259,1595.994,0.000
1622553260,1595.997,0.000
1622553261,1595.992,0.000
1622553262,1595.993,0.000
1622553263,1595.996,0.000
1622553264,1595.991,0.000
1622553265,1595.995,0.000
1622553266,1595.994,0.000
1622553267,1595.993,0.000
1622553268,1595.984,0.000
1622553269,1595.987,0.000
1622553270,1595.986,0.000
1622553271,1595.986,0.000
1622553272,1595.985,0.000
1622553273,1595.984,-0.001
1622553274,1595.984,-0.002
1622553275,1595.984,-0.003
1622553276,1595.983,-0.003
1622553277,1595.990,-0.002
1622553278,1595.984,-0.003
1622553279,1595.988,-0.003
1622553280,1595.624,0.475
1622553281,1594.308,0.477
1622553282,1593.239,0.477
1622553283,1592.277,0.477
1622553284,1591.411,0.477
1622553285,1590.520,0.477
1622553286,1589.778,0.477
1622553287,1589.097,0.477
1622553288,1588.444,0.477
1622553289,1587.765,0.477
1622553290,1587.194,0.477
1622553291,1586.645,0.477
1622553292,1586.122,0.477
1622553293,1585.558,0.477
1622553294,1585.077,0.477
1622553295,1584.620,0.477
1622553296,1584.171,0.477
1622553297,1583.693,0.477
1622553298,1583.277,0.477
1622553299,1582.871,0.477
1622553300,1582.433,0.477
1622553301,1582.054,0.477
1622553302,1581.685,0.477
1622553303,1581.325,0.477
1622553304,1580.934,0.477
1622553305,1580.592,0.477
1622553306,1580.257,0.477
1622553307,1579.937,0.477
1622553308,1579.583,0.477
1622553309,1579.270,0.477
1622553310,1578.971,0.477
1622553311,1578.676,0.477
1622553312,1578.353,0.477
1622553313,1578.071,0.477
1622553314,1577.794,0.477
1622553315,1577.494,0.477
1622553316,1577.224,0.477
1622553317,1576.967,0.477
1622553318,1576.713,0.477
1622553319,1576.433,0.477
1622553320,1576.194,0.477
1622553321,1575.949,0.477
1622553322,1575.716,0.477
1622553323,1575.453,0.477
1622553324,1575.225,0.477
1622553325,1575.003,0.477
1622553326,1574.782,0.477
1622553327,1574.542,0.477
1622553328,1574.328,0.477
1622553329,1574.123,0.477
1622553330,1573.888,0.477
1622553331,1573.686,0.477
1622553332,1573.496,0.477
1622553333,1573.297,0.477
1622553334,1573.086,0.477
1622553335,1572.896,0.477
1622553336,1572.712,0.477
1622553337,1572.530,0.477
1622553338,1572.326,0.477
1622553339,1572.155,0.477
1622553340,1571.976,0.477
1622553341,1571.803,0.477
1622553342,1571.613,0.477
1622553343,1571.442,0.477
1622553344,1571.278,0.477
1622553345,1571.120,0.477
1622553346,1570.937,0.477
1622553347,1570.780,0.477
1622553348,1570.622,0.477
1622553349,1570.452,0.477
1622553350,1570.302,0.477
1622553351,1570.150,0.477
1622553352,1570.006,0.477
1622553353,1569.845,0.477
1622553354,1569.701,0.477
1622553355,1569.560,0.477
1622553356,1569.420,0.477
1622553357,1569.264,0.477
1622553358,1569.131,0.477
1622553359,1569.003,0.477
1622553360,1568.867,0.477
1622553361,1568.718,0.477
1622553362,1568.592,0.477
1622553363,1568.467,0.477
1622553364,1568.326,0.477
1622553365,1568.204,0.477
1622553366,1568.082,0.477
1622553367,1567.963,0.477
1622553368,1567.825,0.477
1622553369,1567.709,0.477
1622553370,1567.597,0.477
1622553371,1567.477,0.477
1622553372,1567.353,0.477
1622553373,1567.242,0.477
1622553374,1567.131,0.477
1622553375,1567.024,0.477
1622553376,1566.899,0.477
1622553377,1566.791,0.477
1622553378,1566.687,0.477
1622553379,1566.571,0.477
1622553380,1566.737,-0.003
1622553381,1567.482,-0.003
1622553382,1568.188,-0.003
1622553383,1568.918,-0.004
1622553384,1569.517,-0.004
1622553385,1570.086,-0.003
1622553386,1570.609,-0.004
1622553387,1571.173,-0.003
1622553388,1571.648,-0.003
1622553389,1572.264,-0.003
1622553390,1572.533,-0.003
1622553391,1572.994,-0.003
1622553392,1573.387,-0.003
1622553393,1573.770,-0.003
1622553394,1574.130,-0.003
1622553395,1574.525,-0.003
1622553396,1574.867,-0.003
1622553397,1575.189,-0.003
1622553398,1575.546,-0.003
1622553399,1575.852,-0.003
1622553400,1576.150,-0.003
1622553401,1576.443,-0.003
1622553402,1576.752,-0.003
1622553403,1577.023,-0.003
1622553404,1577.290,-0.003
1622553405,1577.547,-0.003
1622553406,1577.833,-0.003
1622553407,1578.077,-0.003
1622553408,1578.318,-0.003
1622553409,1578.556,-0.003
1622553410,1578.811,-0.003
1622553411,1579.036,-0.003
1622553412,1579.256,-0.003
1622553413,1579.500,-0.003
1622553414,1579.711,-0.003
1622553415,1579.911,-0.003
1622553416,1580.121,-0.003
1622553417,1580.343,-0.003
1622553418,1580.538,-0.003
1622553419,1580.731,-0.003
1622553420,1580.917,-0.003
1622553421,1581.128,-0.003
1622553422,1581.308,-0.003
1622553423,1581.482,-0.003
1622553424,1581.664,-0.003
1622553425,1581.854,-0.003
1622553426,1582.023,-0.003
1622553427,1582.187,-0.003
1622553428,1582.353,-0.003
1622553429,1582.532,-0.003
1622553430,1582.691,-0.003
1622553431,1582.847,-0.003
1622553432,1583.017,-0.003
1622553433,1583.167,-0.003
1622553434,1583.318,-0.003
1622553435,1583.464,-0.003
1622553436,1583.623,-0.003
1622553437,1583.768,-0.003
1622553438,1583.903,-0.003
1622553439,1584.039,-0.003
1622553440,1584.196,-0.003
1622553441,1584.327,-0.003
1622553442,1584.464,-0.003
1622553443,1584.594,-0.003
1622553444,1584.735,-0.003
1622553445,1584.862,-0.003
1622553446,1584.988,-0.003
1622553447,1585.127,-0.003
1622553448,1585.254,-0.003
1622553449,1585.364,-0.003
1622553450,1585.484,-0.003
1622553451,1585.615,-0.003
1622553452,1585.727,-0.003
1622553453,1585.844,-0.003
1622553454,1585.952,-0.003
1622553455,1586.077,-0.003
1622553456,1586.185,-0.003
1622553457,1586.289,-0.003
1622553458,1586.400,-0.003
1622553459,1586.514,-0.003
1622553460,1586.621,-0.003
1622553461,1586.723,-0.003
1622553462,1586.834,-0.003
1622553463,1586.939,-0.003
1622553464,1587.037,-0.003
1622553465,1587.132,-0.003
1622553466,1587.241,-0.003
1622553467,1587.339,-0.003
1622553468,1587.432,-0.003
1622553469,1587.523,-0.003
1622553470,1587.625,-0.003
1622553471,1587.713,-0.003
1622553472,1587.806,-0.003
1622553473,1587.892,-0.003
1622553474,1587.988,-0.003
1622553475,1588.077,-0.003
1622553476,1588.156,-0.003
1622553477,1588.246,-0.003
1622553478,1588.342,-0.003
1622553479,1588.420,-0.003
1622553480,1588.173,0.477
1622553481,1587.046,0.477
1622553482,1586.140,0.477
1622553483,1585.326,0.477
1622553484,1584.597,0.477
1622553485,1583.840,0.477
1622553486,1583.223,0.477
1622553487,1582.646,0.477
1622553488,1582.106,0.477
1622553489,1581.529,0.477
1622553490,1581.052,0.477
1622553491,1580.586,0.477
1622553492,1580.151,0.477
1622553493,1579.684,0.477
1622553494,1579.294,0.477
1622553495,1578.907,0.477
1622553496,1578.492,0.477
1622553497,1578.137,0.477
1622553498,1577.798,0.477
1622553499,1577.465,0.477
1622553500,1577.107,0.477
1622553501,1576.799,0.477
1622553502,1576.498,0.477
1622553503,1576.206,0.477
1622553504,1575.887,0.477
1622553505,1575.612,0.477
1622553506,1575.343,0.477
1622553507,1575.082,0.477
1622553508,1574.795,0.477
1622553509,1574.544,0.477
1622553510,1574.304,0.477
1622553511,1574.062,0.477
1622553512,1573.802,0.477
1622553513,1573.571,0.477
1622553514,1573.348,0.477
1622553515,1573.108,0.477
1622553516,1572.896,0.477
1622553517,1572.688,0.477
1622553518,1572.484,0.477
1622553519,1572.261,0.477
1622553520,1572.062,0.477
1622553521,1571.864,0.477
1622553522,1571.678,0.477
1622553523,1571.466,0.477
1622553524,1571.284,0.477
1622553525,1571.109,0.477
1622553526,1570.930,0.477
1622553527,1570.742,0.477
1622553528,1570.564,0.477
1622553529,1570.401,0.477
1622553530,1570.213,0.477
1622553531,1570.054,0.477
1622553532,1569.898,0.477
1622553533,1569.740,0.477
1622553534,1569.564,0.477
1622553535,1569.417,0.477
1622553536,1569.269,0.477
1622553537,1569.123,0.477
1622553538,1568.961,0.477
1622553539,1568.820,0.477
1622553540,1568.678,0.477
1622553541,1568.540,0.477
1622553542,1568.387,0.477
1622553543,1568.254,0.477
1622553544,1568.126,0.477
1622553545,1567.980,0.477
1622553546,1567.848,0.477
1622553547,1567.731,0.477
1622553548,1567.597,0.477
1622553549,1567.466,0.477
1622553550,1567.343,0.477
1622553551,1567.223,0.477
1622553552,1567.106,0.477
1622553553,1566.975,0.477
1622553554,1566.860,0.477
1622553555,1566.749,0.477
1622553556,1566.636,0.477
1622553557,1566.514,0.477
1622553558,1566.400,0.477
1622553559,1566.296,0.477
1622553560,1566.192,0.477
1622553561,1566.076,0.477
1622553562,1565.972,0.477
1622553563,1565.868,0.477
1622553564,1565.760,0.477
1622553565,1565.660,0.477
1622553566,1565.556,0.477
1622553567,1565.467,0.477
1622553568,1565.352,0.477
1622553569,1565.261,0.477
1622553570,1565.172,0.477
1622553571,1565.081,0.477
1622553572,1564.979,0.477
1622553573,1564.890,0.477
1622553574,1564.798,0.477
1622553575,1564.711,0.477
1622553576,1564.615,0.477
1622553577,1564.532,0.477
1622553578,1564.447,0.477
1622553579,1564.350,0.477
1622553580,1564.524,-0.003
1622553581,1565.276,-0.003
1622553582,1565.982,-0.003
1622553583,1566.718,-0.003
1622553584,1567.325,-0.003
1622553585,1567.890,-0.004
1622553586,1568.431,-0.003
1622553587,1569.002,-0.003
1622553588,1569.488,-0.003
1622553589,1569.949,-0.003
1622553590,1570.388,-0.003
1622553591,1570.864,-0.003
1622553592,1571.270,-0.003
1622553593,1571.659,-0.003
1622553594,1572.037,-0.003
1622553595,1572.442,-0.003
1622553596,1572.794,-0.003
1622553597,1573.135,-0.003
1622553598,1573.501,-0.003
1622553599,1573.820,-0.003
1622553600,1574.129,-0.003
1622553601,1574.431,-0.003
1622553602,1574.760,-0.003
1622553603,1575.045,-0.003
1622553604,1575.325,-0.003
1622553605,1575.590,-0.003
1622553606,1575.897,-0.003
1622553607,1576.153,-0.003
1622553608,1576.409,-0.003
1622553609,1576.655,-0.003
1622553610,1576.928,-0.003
1622553611,1577.166,-0.003
1622553612,1577.396,-0.003
1622553613,1577.654,-0.003
1622553614,1577.876,-0.003
1622553615,1578.097,-0.003
1622553616,1578.308,-0.003
1622553617,1578.547,-0.003
1622553618,1578.756,-0.003
1622553619,1578.956,-0.003
1622553620,1579.156,-0.003
1622553621,1579.379,-0.003
1622553622,1579.571,-0.003
1622553623,1579.763,-0.003
1622553624,1579.946,-0.003
1622553625,1580.154,-0.003
1622553626,1580.334,-0.003
1622553627,1580.508,-0.003
1622553628,1580.708,-0.003
1622553629,1580.878,-0.003
1622553630,1581.045,-0.003
1622553631,1581.213,-0.003
1622553632,1581.393,-0.003
1622553633,1581.559,-0.003
1622553634,1581.716,-0.003
1622553635,1581.875,-0.003
1622553636,1582.051,-0.003
1622553637,1582.202,-0.003
1622553638,1582.358,-0.003
1622553639,1582.504,-0.003
1622553640,1582.668,-0.003
1622553641,1582.809,-0.003
1622553642,1582.952,-0.003
1622553643,1583.095,-0.003
1622553644,1583.248,-0.003
1622553645,1583.389,-0.003
1622553646,1583.524,-0.003
1622553647,1583.671,-0.003
1622553648,1583.806,-0.003
1622553649,1583.928,-0.003
1622553650,1584.062,-0.003
1622553651,1584.206,-0.003
1622553652,1584.327,-0.003
1622553653,1584.449,-0.003
1622553654,1584.574,-0.003
1622553655,1584.707,-0.003
1622553656,1584.827,-0.003
1622553657,1584.939,-0.003
1622553658,1585.057,-0.003
1622553659,1585.187,-0.003
1622553660,1585.302,-0.003
1622553661,1585.410,-0.003
1622553662,1585.537,-0.003
1622553663,1585.643,-0.003
1622553664,1585.748,-0.003
1622553665,1585.859,-0.003
1622553666,1585.975,-0.003
1622553667,1586.079,-0.003
1622553668,1586.179,-0.003
1622553669,1586.283,-0.003
1622553670,1586.396,-0.003
1622553671,1586.496,-0.003
1622553672,1586.594,-0.003
1622553673,1586.689,-0.003
1622553674,1586.798,-0.003
1622553675,1586.892,-0.003
1622553676,1586.982,-0.003
1622553677,1587.091,-0.003
1622553678,1587.184,-0.003
1622553679,1587.274,-0.003
1622553680,1587.052,0.477
1622553681,1585.949,0.477
1622553682,1585.061,0.477
1622553683,1584.269,0.477
1622553684,1583.551,0.477
1622553685,1582.812,0.477
1622553686,1582.206,0.477
1622553687,1581.649,0.477
1622553688,1581.117,0.477
1622553689,1580.564,0.477
1622553690,1580.091,0.477
1622553691,1579.639,0.477
1622553692,1579.219,0.477
1622553693,1578.759,0.477
1622553694,1578.374,0.477
1622553695,1578.002,0.477
1622553696,1577.597,0.477
1622553697,1577.258,0.477
1622553698,1576.926,0.477
1622553699,1576.606,0.477
1622553700,1576.259,0.477
1622553701,1575.956,0.477
1622553702,1575.665,0.477
1622553703,1575.382,0.477
1622553704,1575.075,0.477
1622553705,1574.809,0.477
1622553706,1574.545,0.477
1622553707,1574.293,0.477
1622553708,1574.013,0.477
1622553709,1573.774,0.477
1622553710,1573.539,0.477
1622553711,1573.279,0.477
1622553712,1573.058,0.477
1622553713,1572.840,0.477
1622553714,1572.620,0.477
1622553715,1572.386,0.477
1622553716,1572.180,0.477
1622553717,1571.976,0.477
1622553718,1571.779,0.477
1622553719,1571.562,0.477
1622553720,1571.370,0.477
1622553721,1571.187,0.477
1622553722,1571.004,0.477
1622553723,1570.798,0.477
1622553724,1570.624,0.477
1622553725,1570.453,0.477
1622553726,1570.284,0.477
1622553727,1570.100,0.477
1622553728,1569.933,0.477
1622553729,1569.772,0.477
1622553730,1569.592,0.477
1622553731,1569.436,0.477
1622553732,1569.283,0.477
1622553733,1569.137,0.477
1622553734,1568.966,0.477
1622553735,1568.826,0.477
1622553736,1568.678,0.477
1622553737,1568.538,0.477
1622553738,1568.382,0.477
1622553739,1568.247,0.477
1622553740,1568.172,0.476
1622553741,1568.055,0.476
1622553742,1567.902,0.476
1622553743,1567.775,0.476
1622553744,1567.647,0.476
1622553745,1567.516,0.476
1622553746,1567.391,0.476
1622553747,1567.281,0.476
1622553748,1567.168,0.476
1622553749,1567.033,0.476
1622553750,1566.922,0.476
1622553751,1566.805,0.476
1622553752,1566.699,0.476
1622553753,1566.578,0.476
1622553754,1566.469,0.476
1622553755,1566.364,0.476
1622553756,1566.254,0.476
1622553757,1566.139,0.476
1622553758,1566.035,0.476
1622553759,1565.933,0.476
1622553760,1565.812,0.476
1622553761,1565.718,0.476
1622553762,1565.616,0.476
1622553763,1565.521,0.476
1622553764,1565.411,0.476
1622553765,1565.338,0.477
1622553766,1565.251,0.477
1622553767,1565.150,0.477
1622553768,1565.046,0.477
1622553769,1564.947,0.477
1622553770,1564.851,0.477
1622553771,1564.761,0.477
1622553772,1564.656,0.477
1622553773,1564.566,0.477
1622553774,1564.481,0.477
1622553775,1564.392,0.477
1622553776,1564.297,0.477
1622553777,1564.211,0.477
1622553778,1564.129,0.477
1622553779,1564.031,0.477
1622553780,1564.206,-0.003
1622553781,1564.954,-0.003
1622553782,1565.662,-0.003
1622553783,1566.397,-0.003
1622553784,1567.005,-0.003
1622553785,1567.567,-0.003
1622553786,1568.111,-0.003
1622553787,1568.677,-0.003
1622553788,1569.161,-0.003
1622553789,1569.625,-0.003
1622553790,1570.064,-0.003
1622553791,1570.546,-0.003
1622553792,1570.946,-0.003
1622553793,1571.340,-0.003
1622553794,1571.765,-0.003
1622553795,1572.118,-0.003
1622553796,1572.474,-0.003
1622553797,1572.812,-0.003
1622553798,1573.184,-0.003
1622553799,1573.501,-0.003
1622553800,1573.810,-0.003
1622553801,1574.112,-0.003
1622553802,1574.445,-0.003
1622553803,1574.725,-0.003
1622553804,1575.006,-0.003
1622553805,1575.278,-0.003
1622553806,1575.580,-0.003
1622553807,1575.840,-0.003
1622553808,1576.092,-0.003
1622553809,1576.343,-0.003
1622553810,1576.614,-0.003
1622553811,1576.853,-0.003
1622553812,1577.089,-0.003
1622553813,1577.338,-0.003
1622553814,1577.565,-0.003
1622553815,1577.787,-0.003
1622553816,1578.001,-0.003
1622553817,1578.243,-0.003
1622553818,1578.447,-0.003
1622553819,1578.652,-0.003
1622553820,1578.853,-0.003
1622553821,1579.072,-0.003
1622553822,1579.265,-0.003
1622553823,1579.462,-0.003
1622553824,1579.647,-0.003
1622553825,1579.847,-0.003
1622553826,1580.035,-0.003
1622553827,1580.207,-0.003
1622553828,1580.409,-0.003
1622553829,1580.583,-0.003
1622553830,1580.750,-0.003
1622553831,1580.918,-0.003
1622553832,1581.103,-0.003
1622553833,1581.266,-0.003
1622553834,1581.429,-0.003
1622553835,1581.587,-0.003
1622553836,1581.764,-0.003
1622553837,1581.918,-0.003
1622553838,1582.069,-0.003
1622553839,1582.222,-0.003
1622553840,1582.387,-0.003
1622553841,1582.536,-0.003
1622553842,1582.678,-0.003
1622553843,1582.835,-0.003
1622553844,1582.976,-0.003
1622553845,1583.115,-0.003
1622553846,1583.251,-0.003
1622553847,1583.403,-0.003
1622553848,1583.534,-0.003
1622553849,1583.659,-0.003
1622553850,1583.795,-0.003
1622553851,1583.940,-0.003
1622553852,1584.067,-0.003
1622553853,1584.187,-0.003
1622553854,1584.314,-0.003
1622553855,1584.451,-0.003
1622553856,1584.569,-0.003
1622553857,1584.690,-0.003
1622553858,1584.809,-0.003
1622553859,1584.936,-0.003
1622553860,1585.053,-0.003
1622553861,1585.162,-0.003
1622553862,1585.291,-0.003
1622553863,1585.395,-0.003
1622553864,1585.504,-0.003
1622553865,1585.615,-0.003
1622553866,1585.730,-0.003
1622553867,1585.838,-0.003
1622553868,1585.939,-0.003
1622553869,1586.043,-0.003
1622553870,1586.162,-0.003
1622553871,1586.258,-0.003
1622553872,1586.359,-0.003
1622553873,1586.457,-0.003
1622553874,1586.566,-0.003
1622553875,1586.663,-0.003
1622553876,1586.755,-0.003
1622553877,1586.857,-0.003
1622553878,1586.947,-0.003
1622553879,1587.034,-0.003
1622553880,1586.826,0.477
1622553881,1585.721,0.477
1622553882,1584.844,0.477
1622553883,1584.054,0.477
1622553884,1583.338,0.477
1622553885,1582.606,0.477
1622553886,1582.004,0.477
1622553887,1581.441,0.477
1622553888,1580.916,0.477
1622553889,1580.353,0.477
1622553890,1579.888,0.477
1622553891,1579.440,0.477
1622553892,1578.966,0.477
1622553893,1578.563,0.477
1622553894,1578.180,0.477
1622553895,1577.806,0.477
1622553896,1577.402,0.477
1622553897,1577.062,0.477
1622553898,1576.733,0.477
1622553899,1576.412,0.477
1622553900,1576.066,0.477
1622553901,1575.768,0.477
1622553902,1575.477,0.477
1622553903,1575.198,0.477
1622553904,1574.886,0.477
1622553905,1574.624,0.477
1622553906,1574.362,0.477
1622553907,1574.113,0.477
1622553908,1573.833,0.477
1622553909,1573.599,0.477
1622553910,1573.363,0.477
1622553911,1573.103,0.477
1622553912,1572.882,0.477
1622553913,1572.664,0.477
1622553914,1572.447,0.477
1622553915,1572.214,0.477
1622553916,1572.007,0.477
1622553917,1571.805,0.477
1622553918,1571.612,0.477
1622553919,1571.393,0.477
1622553920,1571.204,0.477
1622553921,1571.021,0.477
1622553922,1570.837,0.477
1622553923,1570.639,0.477
1622553924,1570.464,0.477
1622553925,1570.293,0.477
1622553926,1570.104,0.477
1622553927,1569.936,0.477
1622553928,1569.780,0.477
1622553929,1569.613,0.477
1622553930,1569.438,0.477
1622553931,1569.285,0.477
1622553932,1569.129,0.477
1622553933,1568.976,0.477
1622553934,1568.815,0.477
1622553935,1568.666,0.477
1622553936,1568.526,0.477
1622553937,1568.384,0.477
1622553938,1568.233,0.477
1622553939,1568.100,0.477
1622553940,1567.963,0.477
1622553941,1567.836,0.477
1622553942,1567.685,0.477
1622553943,1567.562,0.477
1622553944,1567.434,0.477
1622553945,1567.293,0.477
1622553946,1567.170,0.477
1622553947,1567.051,0.477
1622553948,1566.927,0.477
1622553949,1566.800,0.477
1622553950,1566.681,0.477
1622553951,1566.566,0.477
1622553952,1566.458,0.477
1622553953,1566.330,0.477
1622553954,1566.227,0.477
1622553955,1566.117,0.477
1622553956,1566.012,0.477
1622553957,1565.890,0.477
1622553958,1565.788,0.477
1622553959,1565.688,0.477
1622553960,1565.570,0.477
1622553961,1565.472,0.477
1622553962,1565.374,0.477
1622553963,1565.280,0.477
1622553964,1565.174,0.477
1622553965,1565.080,0.477
1622553966,1564.982,0.477
1622553967,1564.894,0.477
1622553968,1564.788,0.477
1622553969,1564.699,0.477
1622553970,1564.611,0.477
1622553971,1564.518,0.477
1622553972,1564.424,0.477
1622553973,1564.337,0.477
1622553974,1564.255,0.477
1622553975,1564.162,0.477
1622553976,1564.075,0.477
1622553977,1563.999,0.477
1622553978,1563.916,0.477
1622553979,1563.823,0.477
1622553980,1563.997,-0.003
1622553981,1564.747,-0.003
1622553982,1565.454,-0.003
1622553983,1566.190,-0.003
1622553984,1566.796,-0.003
1622553985,1567.367,-0.003
1622553986,1567.905,-0.003
1622553987,1568.480,-0.003
1622553988,1568.961,-0.003
1622553989,1569.426,-0.003
1622553990,1569.874,-0.003
1622553991,1570.349,-0.003
1622553992,1570.753,-0.003
1622553993,1571.146,-0.003
1622553994,1571.573,-0.003
1622553995,1571.937,-0.003
1622553996,1572.287,-0.003
1622553997,1572.624,-0.003
1622553998,1573.004,-0.003
1622553999,1573.318,-0.003
1622554000,1573.632,-0.003
1622554001,1573.939,-0.003
1622554002,1574.266,-0.003
1622554003,1574.556,-0.003
1622554004,1574.836,-0.003
1622554005,1575.108,-0.003
1622554006,1575.413,-0.003
1622554007,1575.673,-0.003
1622554008,1575.931,-0.003
1622554009,1576.214,-0.003
1622554010,1576.452,-0.003
1622554011,1576.694,-0.003
1622554012,1576.927,-0.003
1622554013,1577.186,-0.003
1622554014,1577.412,-0.003
1622554015,1577.636,-0.003
1622554016,1577.851,-0.003
1622554017,1578.092,-0.003
1622554018,1578.299,-0.003
1622554019,1578.504,-0.003
1622554020,1578.710,-0.003
1622554021,1578.933,-0.003
1622554022,1579.126,-0.003
1622554023,1579.318,-0.003
1622554024,1579.509,-0.003
1622554025,1579.713,-0.003
1622554026,1579.897,-0.003
1622554027,1580.075,-0.003
1622554028,1580.281,-0.003
1622554029,1580.452,-0.003
1622554030,1580.621,-0.003
1622554031,1580.790,-0.003
1622554032,1580.974,-0.003
1622554033,1581.142,-0.003
1622554034,1581.306,-0.003
1622554035,1581.464,-0.003
1622554036,1581.646,-0.003
1622554037,1581.795,-0.003
1622554038,1581.951,-0.003
1622554039,1582.100,-0.003
1622554040,1582.268,-0.003
1622554041,1582.417,-0.003
1622554042,1582.556,-0.003
1622554043,1582.719,-0.003
1622554044,1582.860,-0.003
1622554045,1583.002,-0.003
1622554046,1583.135,-0.003
1622554047,1583.287,-0.003
1622554048,1583.425,-0.003
1622554049,1583.556,-0.003
1622554050,1583.687,-0.003
1622554051,1583.829,-0.003
1622554052,1583.957,-0.003
1622554053,1584.082,-0.003
1622554054,1584.209,-0.003
1622554055,1584.347,-0.003
1622554056,1584.465,-0.003
1622554057,1584.581,-0.003
1622554058,1584.721,-0.003
1622554059,1584.831,-0.003
1622554060,1584.953,-0.003
1622554061,1585.068,-0.003
1622554062,1585.194,-0.003
1622554063,1585.303,-0.003
1622554064,1585.414,-0.003
1622554065,1585.524,-0.003
1622554066,1585.644,-0.003
1622554067,1585.748,-0.003
1622554068,1585.851,-0.003
1622554069,1585.957,-0.003
1622554070,1586.077,-0.003
1622554071,1586.174,-0.003
1622554072,1586.273,-0.003
1622554073,1586.375,-0.003
1622554074,1586.487,-0.003
1622554075,1586.584,-0.003
1622554076,1586.679,-0.003
1622554077,1586.784,-0.003
1622554078,1586.877,-0.003
1622554079,1586.969,-0.003
1622554080,1586.760,0.477
1622554081,1585.655,0.477
1622554082,1584.771,0.477
1622554083,1583.984,0.477
1622554084,1583.277,0.477
1622554085,1582.545,0.477
1622554086,1581.942,0.477
1622554087,1581.376,0.477
1622554088,1580.849,0.477
1622554089,1580.288,0.477
1622554090,1579.826,0.477
1622554091,1579.388,0.477
1622554092,1578.912,0.477
1622554093,1578.509,0.477
1622554094,1578.122,0.477
1622554095,1577.752,0.477
1622554096,1577.353,0.477
1622554097,1577.012,0.477
1622554098,1576.685,0.477
1622554099,1576.362,0.477
1622554100,1576.016,0.477
1622554101,1575.713,0.477
1622554102,1575.426,0.477
1622554103,1575.148,0.477
1622554104,1574.836,0.477
1622554105,1574.578,0.477
1622554106,1574.313,0.477
1622554107,1574.061,0.477
1622554108,1573.788,0.477
1622554109,1573.546,0.477
1622554110,1573.314,0.477
1622554111,1573.053,0.477
1622554112,1572.830,0.477
1622554113,1572.620,0.477
1622554114,1572.402,0.477
1622554115,1572.169,0.477
1622554116,1571.964,0.477
1622554117,1571.757,0.477
1622554118,1571.568,0.477
1622554119,1571.346,0.477
1622554120,1571.157,0.477
1622554121,1570.972,0.477
1622554122,1570.792,0.477
1622554123,1570.594,0.477
1622554124,1570.420,0.477
1622554125,1570.250,0.477
1622554126,1570.057,0.477
1622554127,1569.893,0.477
1622554128,1569.732,0.477
1622554129,1569.568,0.477
1622554130,1569.391,0.477
1622554131,1569.238,0.477
1622554132,1569.085,0.477
1622554133,1568.932,0.477
1622554134,1568.769,0.477
1622554135,1568.627,0.477
1622554136,1568.488,0.477
1622554137,1568.344,0.477
1622554138,1568.194,0.477
1622554139,1568.058,0.477
1622554140,1567.925,0.477
1622554141,1567.775,0.477
1622554142,1567.648,0.477
1622554143,1567.526,0.477
1622554144,1567.396,0.477
1622554145,1567.257,0.477
1622554146,1567.133,0.477
1622554147,1567.019,0.477
1622554148,1566.898,0.477
1622554149,1566.763,0.477
1622554150,1566.651,0.477
1622554151,1566.534,0.477
1622554152,1566.421,0.477
1622554153,1566.298,0.477
1622554154,1566.188,0.477
1622554155,1566.083,0.477
1622554156,1565.977,0.477
1622554157,1565.857,0.477
1622554158,1565.756,0.477
1622554159,1565.658,0.477
1622554160,1565.541,0.477
1622554161,1565.440,0.477
1622554162,1565.342,0.477
1622554163,1565.248,0.477
1622554164,1565.138,0.477
1622554165,1565.045,0.477
1622554166,1564.954,0.477
1622554167,1564.862,0.477
1622554168,1564.761,0.477
1622554169,1564.668,0.477
1622554170,1564.577,0.477
1622554171,1564.491,0.477
1622554172,1564.390,0.477
1622554173,1564.307,0.477
1622554174,1564.224,0.477
1622554175,1564.126,0.477
1622554176,1564.048,0.477
1622554177,1563.965,0.477
1622554178,1563.888,0.477
1622554179,1563.793,0.477
1622554180,1563.967,-0.003
1622554181,1564.718,-0.003
1622554182,1565.424,-0.003
1622554183,1566.160,-0.003
1622554184,1566.761,-0.003
1622554185,1567.335,-0.003
1622554186,1567.878,-0.003
1622554187,1568.446,-0.003
1622554188,1568.936,-0.003
1622554189,1569.399,-0.003
1622554190,1569.893,-0.003
1622554191,1570.319,-0.003
1622554192,1570.727,-0.003
1622554193,1571.119,-0.003
1622554194,1571.540,-0.003
1622554195,1571.908,-0.003
1622554196,1572.260,-0.003
1622554197,1572.596,-0.003
1622554198,1572.973,-0.003
1622554199,1573.295,-0.003
1622554200,1573.607,-0.003
1622554201,1573.909,-0.003
1622554202,1574.242,-0.003
1622554203,1574.533,-0.003
1622554204,1574.810,-0.003
1622554205,1575.085,-0.003
1622554206,1575.385,-0.003
1622554207,1575.643,-0.003
1622554208,1575.906,-0.003
1622554209,1576.183,-0.003
1622554210,1576.429,-0.003
1622554211,1576.667,-0.003
1622554212,1576.904,-0.003
1622554213,1577.163,-0.003
1622554214,1577.387,-0.003
1622554215,1577.610,-0.003
1622554216,1577.827,-0.003
1622554217,1578.068,-0.003
1622554218,1578.278,-0.003
1622554219,1578.482,-0.003
1622554220,1578.685,-0.003
1622554221,1578.906,-0.003
1622554222,1579.101,-0.003
1622554223,1579.296,-0.003
1622554224,1579.505,-0.003
1622554225,1579.689,-0.003
1622554226,1579.875,-0.003
1622554227,1580.057,-0.003
1622554228,1580.251,-0.003
1622554229,1580.430,-0.003
1622554230,1580.598,-0.003
1622554231,1580.773,-0.003
1622554232,1580.956,-0.003
1622554233,1581.119,-0.003
1622554234,1581.283,-0.003
1622554235,1581.439,-0.003
1622554236,1581.621,-0.003
1622554237,1581.772,-0.003
1622554238,1581.925,-0.003
1622554239,1582.083,-0.003
1622554240,1582.244,-0.003
1622554241,1582.392,-0.003
1622554242,1582.537,-0.003
1622554243,1582.696,-0.003
1622554244,1582.838,-0.003
1622554245,1582.983,-0.003
1622554246,1583.118,-0.003
1622554247,1583.266,-0.003
1622554248,1583.399,-0.003
1622554249,1583.531,-0.003
1622554250,1583.661,-0.003
1622554251,1583.804,-0.003
1622554252,1583.933,-0.003
1622554253,1584.057,-0.003
1622554254,1584.183,-0.003
1622554255,1584.322,-0.003
1622554256,1584.441,-0.003
1622554257,1584.564,-0.003
1622554258,1584.694,-0.003
1622554259,1584.807,-0.003
1622554260,1584.929,-0.003
1622554261,1585.039,-0.003
1622554262,1585.169,-0.003
1622554263,1585.280,-0.003
1622554264,1585.387,-0.003
1622554265,1585.499,-0.003
1622554266,1585.614,-0.003
1622554267,1585.722,-0.003
1622554268,1585.828,-0.003
1622554269,1585.928,-0.003
1622554270,1586.050,-0.003
1622554271,1586.142,-0.003
1622554272,1586.246,-0.003
1622554273,1586.357,-0.003
1622554274,1586.455,-0.003
1622554275,1586.553,-0.003
1622554276,1586.647,-0.003
1622554277,1586.759,-0.003
1622554278,1586.850,-0.003
1622554279,1586.940,-0.003
1622554280,1586.733,0.477
1622554281,1585.636,0.477
1622554282,1584.748,0.477
1622554283,1583.964,0.477
1622554284,1583.253,0.477
1622554285,1582.520,0.477
1622554286,1581.924,0.477
1622554287,1581.356,0.477
1622554288,1580.831,0.477
1622554289,1580.272,0.477
1622554290,1579.805,0.477
1622554291,1579.360,0.477
1622554292,1578.888,0.477
1622554293,1578.487,0.477
1622554294,1578.103,0.477
1622554295,1577.728,0.477
1622554296,1577.330,0.477
1622554297,1576.990,0.477
1622554298,1576.656,0.477
1622554299,1576.340,0.477
1622554300,1575.996,0.477
1622554301,1575.692,0.477
1622554302,1575.407,0.477
1622554303,1575.121,0.477
1622554304,1574.817,0.477
1622554305,1574.554,0.477
1622554306,1574.291,0.477
1622554307,1574.010,0.477
1622554308,1573.764,0.477
1622554309,1573.521,0.477
1622554310,1573.292,0.477
1622554311,1573.037,0.477
1622554312,1572.812,0.477
1622554313,1572.595,0.477
1622554314,1572.382,0.477
1622554315,1572.151,0.477
1622554316,1571.947,0.477
1622554317,1571.741,0.477
1622554318,1571.549,0.477
1622554319,1571.332,0.477
1622554320,1571.136,0.477
1622554321,1570.958,0.477
1622554322,1570.774,0.477
1622554323,1570.573,0.477
1622554324,1570.401,0.477
1622554325,1570.223,0.477
1622554326,1570.035,0.477
1622554327,1569.873,0.477
1622554328,1569.711,0.477
1622554329,1569.547,0.477
1622554330,1569.373,0.477
1622554331,1569.219,0.477
1622554332,1569.071,0.477
1622554333,1568.917,0.477
1622554334,1568.754,0.477
1622554335,1568.612,0.477
1622554336,1568.471,0.477
1622554337,1568.331,0.477
1622554338,1568.172,0.477
1622554339,1568.042,0.477
1622554340,1567.909,0.477
1622554341,1567.760,0.477
1622554342,1567.635,0.477
1622554343,1567.501,0.477
1622554344,1567.381,0.477
1622554345,1567.244,0.477
1622554346,1567.117,0.477
1622554347,1567.000,0.477
1622554348,1566.882,0.477
1622554349,1566.750,0.477
1622554350,1566.639,0.477
1622554351,1566.523,0.477
1622554352,1566.411,0.477
1622554353,1566.288,0.477
1622554354,1566.179,0.477
1622554355,1566.075,0.477
1622554356,1565.957,0.477
1622554357,1565.849,0.477
1622554358,1565.751,0.477
1622554359,1565.640,0.477
1622554360,1565.533,0.477
1622554361,1565.431,0.477
1622554362,1565.332,0.477
1622554363,1565.243,0.477
1622554364,1565.132,0.477
1622554365,1565.037,0.477
1622554366,1564.949,0.477
1622554367,1564.851,0.477
1622554368,1564.754,0.477
1622554369,1564.665,0.477
1622554370,1564.570,0.477
1622554371,1564.476,0.477
1622554372,1564.390,0.477
1622554373,1564.303,0.477
1622554374,1564.219,0.477
1622554375,1564.127,0.477
1622554376,1564.049,0.477
1622554377,1563.963,0.477
1622554378,1563.884,0.477
1622554379,1563.795,0.477
1622554380,1563.964,-0.003
1622554381,1564.713,-0.003
1622554382,1565.422,-0.003
1622554383,1566.160,-0.003
1622554384,1566.768,-0.003
1622554385,1567.333,-0.003
1622554386,1567.877,-0.003
1622554387,1568.451,-0.003
1622554388,1568.935,-0.003
1622554389,1569.402,-0.003
1622554390,1570.057,-0.003
1622554391,1570.322,-0.003
1622554392,1570.726,-0.003
1622554393,1571.118,-0.003
1622554394,1571.545,-0.003
1622554395,1571.906,-0.003
1622554396,1572.260,-0.003
1622554397,1572.605,-0.003
1622554398,1572.976,-0.003
1622554399,1573.296,-0.003
1622554400,1573.610,-0.003
1622554401,1573.909,-0.003
1622554402,1574.247,-0.003
1622554403,1574.529,-0.003
1622554404,1574.813,-0.003
1622554405,1575.123,-0.003
1622554406,1575.383,-0.003
1622554407,1575.649,-0.003
1622554408,1575.909,-0.003
1622554409,1576.185,-0.003
1622554410,1576.435,-0.003
1622554411,1576.668,-0.003
1622554412,1576.903,-0.003
1622554413,1577.161,-0.003
1622554414,1577.383,-0.003
1622554415,1577.613,-0.003
1622554416,1577.826,-0.003
1622554417,1578.069,-0.003
1622554418,1578.276,-0.003
1622554419,1578.482,-0.003
1622554420,1578.684,-0.003
1622554421,1578.908,-0.003
1622554422,1579.104,-0.003
1622554423,1579.300,-0.003
1622554424,1579.507,-0.003
1622554425,1579.697,-0.003
1622554426,1579.876,-0.003
1622554427,1580.055,-0.003
1622554428,1580.260,-0.003
1622554429,1580.431,-0.003
1622554430,1580.605,-0.003
1622554431,1580.776,-0.003
1622554432,1580.959,-0.003
1622554433,1581.127,-0.003
1622554434,1581.287,-0.003
1622554435,1581.448,-0.003
1622554436,1581.630,-0.003
1622554437,1581.781,-0.003
1622554438,1581.937,-0.003
1622554439,1582.104,-0.003
1622554440,1582.254,-0.003
1622554441,1582.400,-0.003
1622554442,1582.540,-0.003
1622554443,1582.705,-0.003
1622554444,1582.845,-0.003
1622554445,1582.985,-0.003
1622554446,1583.122,-0.003
1622554447,1583.274,-0.003
1622554448,1583.408,-0.003
1622554449,1583.541,-0.003
1622554450,1583.667,-0.003
1622554451,1583.819,-0.003
1622554452,1583.939,-0.003
1622554453,1584.066,-0.003
1622554454,1584.191,-0.003
1622554455,1584.329,-0.003
1622554456,1584.452,-0.003
1622554457,1584.570,-0.003
1622554458,1584.700,-0.003
1622554459,1584.818,-0.003
1622554460,1584.932,-0.003
1622554461,1585.048,-0.003
1622554462,1585.179,-0.003
1622554463,1585.283,-0.003
1622554464,1585.397,-0.003
1622554465,1585.502,-0.003
1622554466,1585.625,-0.003
1622554467,1585.729,-0.003
1622554468,1585.835,-0.003
1622554469,1585.938,-0.003
1622554470,1586.052,-0.003
1622554471,1586.154,-0.003
1622554472,1586.259,-0.003
1622554473,1586.370,-0.003
1622554474,1586.462,-0.003
1622554475,1586.563,-0.003
1622554476,1586.657,-0.003
1622554477,1586.765,-0.003
1622554478,1586.857,-0.003
1622554479,1586.949,-0.003
1622554480,1586.743,0.477
1622554481,1585.645,0.477
1622554482,1584.761,0.477
1622554483,1583.972,0.477
1622554484,1583.259,0.477
1622554485,1582.531,0.477
1622554486,1581.927,0.477
1622554487,1581.367,0.477
1622554488,1580.774,0.477
1622554489,1580.276,0.477
1622554490,1579.812,0.477
1622554491,1579.369,0.477
1622554492,1578.891,0.477
1622554493,1578.495,0.477
1622554494,1578.105,0.477
1622554495,1577.739,0.477
1622554496,1577.340,0.477
1622554497,1576.997,0.477
1622554498,1576.667,0.477
1622554499,1576.348,0.477
1622554500,1575.996,0.477
1622554501,1575.704,0.477
1622554502,1575.411,0.477
1622554503,1575.128,0.477
1622554504,1574.822,0.477
1622554505,1574.554,0.477
1622554506,1574.298,0.477
1622554507,1574.015,0.477
1622554508,1573.768,0.477
1622554509,1573.529,0.477
1622554510,1573.293,0.477
1622554511,1573.041,0.477
1622554512,1572.819,0.477
1622554513,1572.598,0.477
1622554514,1572.390,0.477
1622554515,1572.152,0.477
1622554516,1571.949,0.477
1622554517,1571.748,0.477
1622554518,1571.547,0.477
1622554519,1571.334,0.477
1622554520,1571.144,0.477
1622554521,1570.962,0.477
1622554522,1570.760,0.477
1622554523,1570.578,0.477
1622554524,1570.405,0.477
1622554525,1570.235,0.477
1622554526,1570.043,0.477
1622554527,1569.883,0.477
1622554528,1569.719,0.477
1622554529,1569.556,0.477
1622554530,1569.381,0.477
1622554531,1569.226,0.477
1622554532,1569.079,0.477
1622554533,1568.926,0.477
1622554534,1568.766,0.477
1622554535,1568.618,0.477
1622554536,1568.476,0.477
1622554537,1568.339,0.477
1622554538,1568.182,0.477
1622554539,1568.051,0.477
1622554540,1567.916,0.477
1622554541,1567.768,0.477
1622554542,1567.637,0.477
1622554543,1567.512,0.477
1622554544,1567.387,0.477
1622554545,1567.247,0.477
1622554546,1567.123,0.477
1622554547,1567.004,0.477
1622554548,1566.883,0.477
1622554549,1566.752,0.477
1622554550,1566.636,0.477
1622554551,1566.521,0.477
1622554552,1566.410,0.477
1622554553,1566.285,0.477
1622554554,1566.175,0.477
1622554555,1566.071,0.477
1622554556,1565.949,0.477
1622554557,1565.848,0.477
1622554558,1565.744,0.477
1622554559,1565.638,0.477
1622554560,1565.530,0.477
1622554561,1565.430,0.477
1622554562,1565.331,0.477
1622554563,1565.235,0.477
1622554564,1565.128,0.477
1622554565,1565.035,0.477
1622554566,1564.944,0.477
1622554567,1564.847,0.477
1622554568,1564.747,0.477
1622554569,1564.655,0.477
1622554570,1564.565,0.477
1622554571,1564.469,0.477
1622554572,1564.382,0.477
1622554573,1564.297,0.477
1622554574,1564.214,0.477
1622554575,1564.121,0.477
1622554576,1564.039,0.477
1622554577,1563.958,0.477
1622554578,1563.879,0.477
1622554579,1563.790,0.477
1622554580,1563.949,-0.003
1622554581,1564.700,-0.003
1622554582,1565.406,-0.003
1622554583,1566.144,-0.003
1622554584,1566.751,-0.003
1622554585,1567.322,-0.003
1622554586,1567.859,-0.003
1622554587,1568.442,-0.003
1622554588,1568.920,-0.003
1622554589,1569.387,-0.003
1622554590,1569.882,-0.003
1622554591,1570.303,-0.003
1622554592,1570.713,-0.003
1622554593,1571.106,-0.003
1622554594,1571.534,-0.003
1622554595,1571.898,-0.003
1622554596,1572.244,-0.003
1622554597,1572.590,-0.003
1622554598,1572.962,-0.003
1622554599,1573.283,-0.003
1622554600,1573.595,-0.003
1622554601,1573.897,-0.003
1622554602,1574.227,-0.003
1622554603,1574.520,-0.003
1622554604,1574.798,-0.003
1622554605,1575.111,-0.003
1622554606,1575.375,-0.003
1622554607,1575.634,-0.003
1622554608,1575.895,-0.003
1622554609,1576.170,-0.003
1622554610,1576.419,-0.003
1622554611,1576.664,-0.003
1622554612,1576.893,-0.003
1622554613,1577.152,-0.003
1622554614,1577.375,-0.003
1622554615,1577.600,-0.003
1622554616,1577.817,-0.003
1622554617,1578.055,-0.003
1622554618,1578.271,-0.003
1622554619,1578.470,-0.003
1622554620,1578.676,-0.003
1622554621,1578.901,-0.003
1622554622,1579.093,-0.003
1622554623,1579.290,-0.003
1622554624,1579.500,-0.003
1622554625,1579.685,-0.003
1622554626,1579.874,-0.003
1622554627,1580.051,-0.003
1622554628,1580.249,-0.003
1622554629,1580.425,-0.003
1622554630,1580.596,-0.003
1622554631,1580.765,-0.003
1622554632,1580.951,-0.003
1622554633,1581.114,-0.003
1622554634,1581.280,-0.003
1622554635,1581.436,-0.003
1622554636,1581.616,-0.003
1622554637,1581.772,-0.003
1622554638,1581.920,-0.003
1622554639,1582.095,-0.003
1622554640,1582.244,-0.003
1622554641,1582.390,-0.003
1622554642,1582.534,-0.003
1622554643,1582.693,-0.003
1622554644,1582.838,-0.003
1622554645,1582.975,-0.003
1622554646,1583.112,-0.003
1622554647,1583.266,-0.003
1622554648,1583.396,-0.003
1622554649,1583.529,-0.003
1622554650,1583.661,-0.003
1622554651,1583.802,-0.003
1622554652,1583.930,-0.003
1622554653,1584.053,-0.003
1622554654,1584.194,-0.003
1622554655,1584.316,-0.003
1622554656,1584.433,-0.003
1622554657,1584.557,-0.003
1622554658,1584.689,-0.003
1622554659,1584.809,-0.003
1622554660,1584.918,-0.003
1622554661,1585.036,-0.003
1622554662,1585.168,-0.003
1622554663,1585.274,-0.003
1622554664,1585.385,-0.003
1622554665,1585.495,-0.003
1622554666,1585.610,-0.003
1622554667,1585.724,-0.003
1622554668,1585.827,-0.003
1622554669,1585.930,-0.003
1622554670,1586.048,-0.003
1622554671,1586.147,-0.003
1622554672,1586.251,-0.003
1622554673,1586.361,-0.003
1622554674,1586.458,-0.003
1622554675,1586.555,-0.003
1622554676,1586.652,-0.003
1622554677,1586.759,-0.003
1622554678,1586.854,-0.003
1622554679,1586.946,-0.003
1622554680,1586.745,0.477
1622554681,1585.643,0.477
1622554682,1584.760,0.477
1622554683,1583.977,0.477
1622554684,1583.262,0.477
1622554685,1582.534,0.477
1622554686,1581.930,0.477
1622554687,1581.366,0.477
1622554688,1580.782,0.477
1622554689,1580.283,0.477
1622554690,1579.819,0.477
1622554691,1579.378,0.477
1622554692,1578.900,0.477
1622554693,1578.503,0.477
1622554694,1578.114,0.477
1622554695,1577.748,0.477
1622554696,1577.350,0.477
1622554697,1577.003,0.477
1622554698,1576.680,0.477
1622554699,1576.361,0.477
1622554700,1576.014,0.477
1622554701,1575.717,0.477
1622554702,1575.423,0.477
1622554703,1575.111,0.477
1622554704,1574.836,0.477
1622554705,1574.573,0.477
1622554706,1574.316,0.477
1622554707,1574.026,0.477
1622554708,1573.782,0.477
1622554709,1573.548,0.477
1622554710,1573.314,0.477
1622554711,1573.059,0.477
1622554712,1572.834,0.477
1622554713,1572.623,0.477
1622554714,1572.409,0.477
1622554715,1572.170,0.477
1622554716,1571.971,0.477
1622554717,1571.768,0.477
1622554718,1571.574,0.477
1622554719,1571.356,0.477
1622554720,1571.169,0.477
1622554721,1570.984,0.477
1622554722,1570.780,0.477
1622554723,1570.601,0.477
1622554724,1570.423,0.477
1622554725,1570.250,0.477
1622554726,1570.065,0.477
1622554727,1569.899,0.477
1622554728,1569.747,0.477
1622554729,1569.583,0.477
1622554730,1569.405,0.477
1622554731,1569.253,0.477
1622554732,1569.092,0.477
1622554733,1568.948,0.477
1622554734,1568.781,0.477
1622554735,1568.642,0.477
1622554736,1568.500,0.477
1622554737,1568.339,0.477
1622554738,1568.206,0.477
1622554739,1568.067,0.477
1622554740,1567.937,0.477
1622554741,1567.789,0.477
1622554742,1567.663,0.477
1622554743,1567.536,0.477
1622554744,1567.411,0.477
1622554745,1567.270,0.477
1622554746,1567.149,0.477
1622554747,1567.024,0.477
1622554748,1567.419,0.000
1622554749,1568.237,0.000
1622554750,1568.916,0.000
1622554751,1569.541,0.000
1622554752,1570.112,0.000
1622554753,1570.708,0.000
1622554754,1571.214,0.000
1622554755,1571.685,0.000
1622554756,1572.190,0.000
1622554757,1572.615,0.000
1622554758,1573.026,0.000
1622554759,1573.417,0.000
1622554760,1573.831,0.000
1622554761,1574.196,0.000
1622554762,1574.538,0.000
1622554763,1574.870,0.000
1622554764,1575.233,0.000
1622554765,1575.534,0.000
1622554766,1575.842,0.000
1622554767,1576.130,0.000
1622554768,1576.448,0.000
1622554769,1576.725,0.000
1622554770,1576.986,0.000
1622554771,1577.286,0.000
1622554772,1577.536,0.000
1622554773,1577.785,0.000
1622554774,1578.026,0.000
1622554775,1578.287,0.000
1622554776,1578.517,0.000
1622554777,1578.740,0.000
1622554778,1578.963,0.000
1622554779,1579.203,0.000
1622554780,1579.410,0.000
1622554781,1579.623,0.000
1622554782,1579.818,0.000
1622554783,1580.046,0.000
1622554784,1580.240,0.000
1622554785,1580.425,0.000
1622554786,1580.643,0.000
1622554787,1580.824,0.000
1622554788,1581.008,0.000
1622554789,1581.180,0.000
1622554790,1581.373,0.000
1622554791,1581.553,0.000
1622554792,1581.716,0.000
1622554793,1581.884,0.000
1622554794,1582.064,0.000
1622554795,1582.224,0.000
1622554796,1582.389,0.000
1622554797,1582.541,0.000
1622554798,1582.716,0.000
1622554799,1582.864,0.000
1622554800,1583.008,0.000
1622554801,1583.158,0.000
1622554802,1583.321,0.000
1622554803,1583.459,0.000
1622554804,1583.591,0.000
1622554805,1583.744,0.000
1622554806,1583.883,0.000
1622554807,1584.011,0.000
1622554808,1584.142,0.000
1622554809,1584.288,0.000
1622554810,1584.409,0.000
1622554811,1584.544,0.000
1622554812,1584.658,0.000
1622554813,1584.799,0.000
1622554814,1584.917,0.000
1622554815,1585.033,0.000
1622554816,1585.157,0.000
1622554817,1585.284,0.000
1622554818,1585.400,0.000
1622554819,1585.519,0.000
1622554820,1585.638,0.000
1622554821,1585.755,0.000
1622554822,1585.857,0.000
1622554823,1585.965,0.000
1622554824,1586.086,0.000
1622554825,1586.185,0.000
1622554826,1586.295,0.000
1622554827,1586.386,0.000
1622554828,1586.497,0.000
1622554829,1586.605,0.000
1622554830,1586.695,0.000
1622554831,1586.794,0.000
1622554832,1586.904,0.000
1622554833,1586.995,0.000
1622554834,1587.096,0.000
1622554835,1587.183,0.000
1622554836,1587.287,0.000
1622554837,1587.376,0.000
1622554838,1587.463,0.000
1622554839,1587.563,0.000
1622554840,1587.644,0.000
1622554841,1587.736,0.000
1622554842,1587.821,0.000
1622554843,1587.910,0.000
1622554844,1588.000,0.000
1622554845,1588.080,0.000
1622554846,1588.154,0.000
1622554847,1588.252,0.000
1622554848,1588.324,0.000
1622554849,1588.409,0.000
1622554850,1588.479,0.000
1622554851,1588.565,0.000
1622554852,1588.643,0.000
1622554853,1588.710,0.000
1622554854,1588.800,0.000
1622554855,1588.872,0.000
1622554856,1588.942,0.000
1622554857,1589.015,0.000
1622554858,1589.088,0.000
1622554859,1589.165,0.000
1622554860,1589.235,0.000
1622554861,1589.298,0.000
1622554862,1589.377,0.000
1622554863,1589.442,0.000
1622554864,1589.512,0.000
1622554865,1589.577,0.000
1622554866,1589.645,0.000
1622554867,1589.714,0.000
1622554868,1589.776,0.000
1622554869,1589.842,0.000
1622554870,1589.902,0.000
1622554871,1589.964,0.000
1622554872,1590.023,0.000
1622554873,1590.090,0.000
1622554874,1590.153,0.000
1622554875,1590.209,0.000
1622554876,1590.267,0.000
1622554877,1590.335,0.000
1622554878,1590.387,0.000
1622554879,1590.447,0.000
1622554880,1590.499,0.000
1622554881,1590.548,0.000
1622554882,1590.608,0.000
1622554883,1590.661,0.000
1622554884,1590.706,0.000
1622554885,1590.772,0.000
1622554886,1590.824,0.000
1622554887,1590.874,0.000
1622554888,1590.929,0.000
1622554889,1590.981,0.000
1622554890,1591.036,0.000
1622554891,1591.086,0.000
1622554892,1591.140,0.000
1622554893,1591.183,0.000
1622554894,1591.233,0.000
1622554895,1591.283,0.000
1622554896,1591.332,0.000
1622554897,1591.375,0.000
1622554898,1591.422,0.000
1622554899,1591.468,0.000
1622554900,1591.526,0.000
1622554901,1591.565,0.000
1622554902,1591.611,0.000
1622554903,1591.663,0.000
1622554904,1591.701,0.000
1622554905,1591.746,0.000
1622554906,1591.794,0.000
1622554907,1591.841,0.000
1622554908,1591.886,0.000
1622554909,1591.923,0.000
1622554910,1591.962,0.000
1622554911,1592.000,0.000
1622554912,1592.040,0.000
1622554913,1592.080,0.000
1622554914,1592.118,0.000
1622554915,1592.049,0.000
1622554916,1592.004,0.000
1622554917,1592.020,0.000
1622554918,1592.049,0.000
1622554919,1592.073,0.000
1622554920,1592.111,0.000
1622554921,1592.141,0.000
1622554922,1592.178,0.000
1622554923,1592.212,0.000
1622554924,1592.246,0.000
1622554925,1592.280,0.000
1622554926,1592.318,0.000
1622554927,1592.351,0.000
1622554928,1592.387,0.000
1622554929,1592.415,0.000
1622554930,1592.455,0.000
1622554931,1592.489,0.000
1622554932,1592.523,0.000
1622554933,1592.557,0.000
1622554934,1592.591,0.000
1622554935,1592.620,0.000
1622554936,1592.651,0.000
1622554937,1592.684,0.000
1622554938,1592.715,0.000
1622554939,1592.745,0.000
1622554940,1592.770,0.000
1622554941,1592.802,0.000
1622554942,1592.831,0.000
1622554943,1592.860,0.000
1622554944,1592.886,0.000
1622554945,1592.916,0.000
1622554946,1592.945,0.000
1622554947,1592.968,0.000
1622554948,1592.999,0.000
1622554949,1593.030,0.000
1622554950,1593.054,0.000
1622554951,1593.079,0.000
1622554952,1593.106,0.000
1622554953,1593.131,0.000
1622554954,1593.158,0.000
1622554955,1593.182,0.000
1622554956,1593.209,0.000
1622554957,1593.235,0.000
1622554958,1593.257,0.000
1622554959,1593.283,0.000
1622554960,1593.308,0.000
1622554961,1593.333,0.000
1622554962,1593.355,0.000
1622554963,1593.376,0.000
1622554964,1593.405,0.000
1622554965,1593.418,0.000
1622554966,1593.444,0.000
1622554967,1593.465,0.000
1622554968,1593.490,0.000
1622554969,1593.513,0.000
1622554970,1593.532,0.000
1622554971,1593.553,0.000
1622554972,1593.577,0.000
1622554973,1593.597,0.000
1622554974,1593.615,0.000
1622554975,1593.638,0.000
1622554976,1593.655,0.000
1622554977,1593.674,0.000
1622554978,1593.690,0.000
1622554979,1593.716,0.000
1622554980,1593.731,0.000
1622554981,1593.755,0.000
1622554982,1593.772,0.000
1622554983,1593.783,0.000
1622554984,1593.809,0.000
1622554985,1593.824,0.000
1622554986,1593.847,0.000
1622554987,1593.865,0.000
1622554988,1593.876,0.000
1622554989,1593.901,0.000
1622554990,1593.913,0.000
1622554991,1593.932,0.000
1622554992,1593.948,0.000
1622554993,1593.965,0.000
1622554994,1593.982,0.000
1622554995,1594.002,0.000
1622554996,1594.020,0.000
1622554997,1594.029,0.000
1622554998,1594.054,0.000
1622554999,1594.065,0.000
1622555000,1594.080,0.000
1622555001,1594.098,0.000
1622555002,1594.115,0.000
1622555003,1594.129,0.000
1622555004,1594.143,0.000
1622555005,1594.156,0.000
1622555006,1594.178,0.000
1622555007,1594.189,0.000
1622555008,1594.202,0.000
1622555009,1594.218,0.000
1622555010,1594.234,0.000
1622555011,1594.253,0.000
1622555012,1594.264,0.000
1622555013,1594.279,0.000
1622555014,1594.294,0.000
1622555015,1594.304,0.000
1622555016,1594.316,0.000
1622555017,1594.328,0.000
1622555018,1594.345,0.000
1622555019,1594.361,0.000
1622555020,1594.368,0.000
1622555021,1594.384,0.000
1622555022,1594.393,0.000
1622555023,1594.406,0.000
1622555024,1594.418,0.000
1622555025,1594.429,0.000
1622555026,1594.442,0.000
1622555027,1594.454,0.000
1622555028,1594.468,0.000
1622555029,1594.477,0.000
1622555030,1594.484,0.000
1622555031,1594.501,0.000
1622555032,1594.509,0.000
1622555033,1594.518,0.000
1622555034,1594.537,0.000
1622555035,1594.544,0.000
1622555036,1594.557,0.000
1622555037,1594.566,0.000
1622555038,1594.574,0.000
1622555039,1594.587,0.000
1622555040,1594.593,0.000
1622555041,1594.607,0.000
1622555042,1594.612,0.000
1622555043,1594.621,0.000
1622555044,1594.632,0.000
1622555045,1594.643,0.000
1622555046,1594.658,0.000
1622555047,1594.662,0.000
1622555048,1594.671,0.000
1622555049,1594.681,0.000
1622555050,1594.691,0.000
1622555051,1594.697,0.000
1622555052,1594.707,0.000
1622555053,1594.715,0.000
1622555054,1594.728,0.000
1622555055,1594.733,0.000
1622555056,1594.743,0.000
1622555057,1594.750,0.000
1622555058,1594.760,0.000
1622555059,1594.773,0.000
1622555060,1594.779,0.000
1622555061,1594.791,0.000
1622555062,1594.794,0.000
1622555063,1594.803,0.000
1622555064,1594.812,0.000
1622555065,1594.816,0.000
1622555066,1594.827,0.000
1622555067,1594.835,0.000
1622555068,1594.841,0.000
1622555069,1594.855,0.000
1622555070,1594.857,0.000
1622555071,1594.868,0.000
1622555072,1594.876,0.000
1622555073,1594.882,0.000
1622555074,1594.889,0.000
1622555075,1594.898,0.000
1622555076,1594.905,0.000
1622555077,1594.907,0.000
1622555078,1594.918,0.000
1622555079,1594.918,0.000
1622555080,1594.928,0.000
1622555081,1594.933,0.000
1622555082,1594.941,0.000
1622555083,1594.948,0.000
1622555084,1594.956,0.000
1622555085,1594.958,0.000
1622555086,1594.969,0.000
1622555087,1594.972,0.000
1622555088,1594.978,0.000
1622555089,1594.982,0.000
1622555090,1594.992,0.000
1622555091,1594.997,0.000
1622555092,1594.996,0.000
1622555093,1595.007,0.000
1622555094,1595.012,0.000
1622555095,1595.023,0.000
1622555096,1595.028,0.000
1622555097,1595.029,0.000
1622555098,1595.033,0.000
1622555099,1595.041,0.000
1622555100,1595.047,0.000
1622555101,1595.051,0.000
1622555102,1595.056,0.000
1622555103,1595.057,0.000
1622555104,1595.064,0.000
1622555105,1595.068,0.000
1622555106,1595.070,0.000
1622555107,1595.076,0.000
1622555108,1595.086,0.000
1622555109,1595.087,0.000
1622555110,1595.094,0.000
1622555111,1595.094,0.000
1622555112,1595.103,0.000
1622555113,1595.104,0.000
1622555114,1595.112,0.000
1622555115,1595.113,0.000
1622555116,1595.116,0.000
1622555117,1595.124,0.000
1622555118,1595.123,0.000
1622555119,1595.131,0.000
1622555120,1595.135,0.000
1622555121,1595.139,0.000
1622555122,1595.145,0.000
1622555123,1595.147,0.000
1622555124,1595.156,0.000
1622555125,1595.158,0.000
1622555126,1595.163,0.000
1622555127,1595.164,0.000
1622555128,1595.169,0.000
1622555129,1595.173,0.000
1622555130,1595.170,0.000
1622555131,1595.185,0.000
1622555132,1595.179,0.000
1622555133,1595.188,0.000
1622555134,1595.193,0.000
1622555135,1595.193,0.000
1622555136,1595.201,0.000
1622555137,1595.203,0.000
1622555138,1595.206,0.000
1622555139,1595.207,0.000
1622555140,1595.212,0.000
1622555141,1595.218,0.000
1622555142,1595.219,0.000
1622555143,1595.221,0.000
1622555144,1595.225,0.000
1622555145,1595.227,0.000
1622555146,1595.229,0.000
1622555147,1595.238,0.000
1622555148,1595.243,0.000
1622555149,1595.240,0.000
1622555150,1595.248,0.000
1622555151,1595.248,0.000
1622555152,1595.249,0.000
1622555153,1595.252,0.000
1622555154,1595.250,0.000
1622555155,1595.258,0.000
1622555156,1595.263,0.000
1622555157,1595.264,0.000
1622555158,1595.268,0.000
1622555159,1595.267,0.000
1622555160,1595.275,0.000
1622555161,1595.275,0.000
1622555162,1595.274,0.000
1622555163,1595.275,0.000
1622555164,1595.274,0.000
1622555165,1595.280,0.000
1622555166,1595.282,0.000
1622555167,1595.283,0.000
1622555168,1595.284,0.000
1622555169,1595.287,0.000
1622555170,1595.288,0.000
1622555171,1595.292,0.000
1622555172,1595.294,0.000
1622555173,1595.296,0.000
1622555174,1595.299,0.000
1622555175,1595.304,0.000
1622555176,1595.310,0.000
1622555177,1595.303,0.000
1622555178,1595.312,0.000
1622555179,1595.305,0.000
1622555180,1595.313,0.000
1622555181,1595.311,0.000
1622555182,1595.310,0.000
1622555183,1595.317,0.000
1622555184,1595.312,0.000
1622555185,1595.316,0.000
1622555186,1595.319,0.000
1622555187,1595.324,0.000
1622555188,1595.319,0.000
1622555189,1595.324,0.000
1622555190,1595.327,0.000
1622555191,1595.326,0.000
1622555192,1595.332,0.000
1622555193,1595.330,0.000
1622555194,1595.337,0.000
1622555195,1595.337,0.000
1622555196,1595.339,0.000
1622555197,1595.343,0.000
1622555198,1595.344,0.000
1622555199,1595.346,0.000
1622555200,1595.346,0.000
1622555201,1595.343,0.000
1622555202,1595.348,0.000
1622555203,1595.354,0.000
1622555204,1595.355,0.000
1622555205,1595.350,0.000
1622555206,1595.357,0.000
1622555207,1595.353,0.000
1622555208,1595.360,0.000
1622555209,1595.358,0.000
1622555210,1595.358,0.000
1622555211,1595.362,0.000
1622555212,1595.363,0.000
1622555213,1595.367,0.000
1622555214,1595.365,0.000
1622555215,1595.370,0.000
1622555216,1595.370,0.000
1622555217,1595.368,0.000
1622555218,1595.368,0.000
1622555219,1595.371,0.000
1622555220,1595.372,0.000
1622555221,1595.370,0.000
1622555222,1595.375,0.000
1622555223,1595.376,0.000
1622555224,1595.376,0.000
1622555225,1595.380,0.000
1622555226,1595.375,0.000
1622555227,1595.377,0.000
1622555228,1595.377,0.000
1622555229,1595.380,0.000
1622555230,1595.383,0.000
1622555231,1595.384,0.000
1622555232,1595.384,0.000
1622555233,1595.385,0.000
1622555234,1595.386,0.000
1622555235,1595.382,0.000
1622555236,1595.390,0.000
1622555237,1595.386,0.000
1622555238,1595.392,0.000
1622555239,1595.390,0.000
1622555240,1595.391,0.000
1622555241,1595.391,0.000
1622555242,1595.388,0.000
1622555243,1595.392,0.000
1622555244,1595.391,0.000
1622555245,1595.396,0.000
1622555246,1595.395,0.000
1622555247,1595.398,0.000
1622555248,1595.399,0.000
1622555249,1595.394,0.000
1622555250,1595.403,0.000
1622555251,1595.399,0.000
1622555252,1595.401,0.000
1622555253,1595.400,0.000
1622555254,1595.401,0.000
1622555255,1595.400,0.000
1622555256,1595.404,0.000
1622555257,1595.408,0.000
1622555258,1595.404,0.000
1622555259,1595.411,0.000
1622555260,1595.405,0.000
1622555261,1595.407,0.000
1622555262,1595.404,0.000
1622555263,1595.407,0.000
1622555264,1595.411,0.000
1622555265,1595.410,0.000
1622555266,1595.408,0.000
1622555267,1595.416,0.000
1622555268,1595.413,0.000
1622555269,1595.414,0.000
1622555270,1595.417,0.000
1622555271,1595.415,0.000
1622555272,1595.415,0.000
1622555273,1595.420,0.000
1622555274,1595.413,0.000
1622555275,1595.413,0.000
1622555276,1595.412,0.000
1622555277,1595.419,0.000
1622555278,1595.414,0.000
1622555279,1595.412,0.000
1622555280,1595.423,0.000
1622555281,1595.415,0.000
1622555282,1595.420,0.000
1622555283,1595.420,0.000
1622555284,1595.420,0.000
1622555285,1595.420,0.000
1622555286,1595.420,0.000
1622555287,1595.419,0.000
1622555288,1595.418,0.000
1622555289,1595.426,0.000
1622555290,1595.419,0.000
1622555291,1595.426,0.000
1622555292,1595.420,0.000
1622555293,1595.425,0.000
1622555294,1595.421,0.000
1622555295,1595.420,0.000
1622555296,1595.421,0.000
1622555297,1595.417,0.000
1622555298,1595.425,0.000
1622555299,1595.424,0.000
1622555300,1595.426,0.000
1622555301,1595.422,0.000
1622555302,1595.424,0.000
1622555303,1595.426,0.000
1622555304,1595.421,0.000
1622555305,1595.426,0.000
1622555306,1595.424,0.000
1622555307,1595.423,0.000
1622555308,1595.426,0.000
1622555309,1595.427,0.000
1622555310,1595.431,0.000
1622555311,1595.429,0.000
1622555312,1595.430,0.000
1622555313,1595.428,0.000
1622555314,1595.433,0.000
1622555315,1595.434,0.000
1622555316,1595.439,0.000
1622555317,1595.437,0.000
1622555318,1595.442,0.000
1622555319,1595.437,0.000
1622555320,1595.440,0.000
1622555321,1595.445,0.000
1622555322,1595.441,0.000
1622555323,1595.442,0.000
1622555324,1595.440,0.000
1622555325,1595.441,0.000
1622555326,1595.437,0.000
1622555327,1595.439,0.000
1622555328,1595.444,0.000
1622555329,1595.439,0.000
1622555330,1595.444,0.000
1622555331,1595.442,0.000
1622555332,1595.443,0.000
1622555333,1595.447,0.000
1622555334,1595.442,0.000
1622555335,1595.444,0.000
1622555336,1595.442,0.000
1622555337,1595.442,0.000
1622555338,1595.439,0.000
1622555339,1595.442,0.000
1622555340,1595.446,0.000
1622555341,1595.445,0.000
1622555342,1595.445,0.000
1622555343,1595.442,0.000
1622555344,1595.448,0.000
1622555345,1595.448,0.000
1622555346,1595.451,0.000
1622555347,1595.452,0.000
1622555348,1595.452,0.000
1622555349,1595.450,0.000
1622555350,1595.453,0.000
1622555351,1595.454,0.000
1622555352,1595.448,0.000
1622555353,1595.456,0.000
1622555354,1595.454,0.000
1622555355,1595.456,0.000
1622555356,1595.457,0.000
1622555357,1595.457,0.000
1622555358,1595.455,0.000
1622555359,1595.462,0.000
1622555360,1595.461,0.000
1622555361,1595.458,0.000
1622555362,1595.458,0.000
1622555363,1595.454,0.000
1622555364,1595.462,0.000
1622555365,1595.458,0.000
1622555366,1595.458,0.000
1622555367,1595.455,0.000
1622555368,1595.461,0.000
1622555369,1595.455,0.000
1622555370,1595.456,0.000
1622555371,1595.459,0.000
1622555372,1595.459,0.000
1622555373,1595.461,0.000
1622555374,1595.459,0.000
1622555375,1595.465,0.000
1622555376,1595.458,0.000
1622555377,1595.464,0.000
1622555378,1595.460,0.000
1622555379,1595.461,0.000
1622555380,1595.465,0.000
1622555381,1595.464,0.000
1622555382,1595.460,0.000
1622555383,1595.459,0.000
1622555384,1595.458,0.000
1622555385,1595.459,0.000
1622555386,1595.465,0.000
1622555387,1595.466,0.000
1622555388,1595.462,0.000
1622555389,1595.465,0.000
1622555390,1595.458,0.000
1622555391,1595.463,0.000
1622555392,1595.459,0.000
1622555393,1595.462,0.000
1622555394,1595.459,0.000
1622555395,1595.461,0.000
1622555396,1595.461,0.000
1622555397,1595.457,0.000
1622555398,1595.464,0.000
1622555399,1595.464,0.000
1622555400,1595.464,0.000
1622555401,1595.465,0.000
1622555402,1595.464,0.000
1622555403,1595.466,0.000
1622555404,1595.460,0.000
1622555405,1595.463,0.000
1622555406,1595.463,0.000
1622555407,1595.467,0.000
1622555408,1595.461,0.000
1622555409,1595.458,0.000
1622555410,1595.464,0.000
1622555411,1595.457,0.000
1622555412,1595.461,0.000
